Time (s),Channel 2 (V)
-4.34E-05,-0.001581479
-4.34E-05,0.002149791
-4.34E-05,0.002149791
-4.33E-05,-0.001581479
-4.33E-05,-0.005312749
-4.33E-05,0.002149791
-4.33E-05,0.009612331
-4.33E-05,-0.001581479
-4.32E-05,0.009612331
-4.32E-05,-0.001581479
-4.32E-05,0.002149791
-4.32E-05,-0.001581479
-4.32E-05,0.002149791
-4.31E-05,0.002149791
-4.31E-05,0.005881061
-4.31E-05,0.005881061
-4.31E-05,0.002149791
-4.31E-05,0.005881061
-4.30E-05,0.002149791
-4.30E-05,0.002149791
-4.30E-05,0.002149791
-4.30E-05,-0.009044019
-4.30E-05,0.002149791
-4.29E-05,0.005881061
-4.29E-05,0.002149791
-4.29E-05,0.013343601
-4.29E-05,0.005881061
-4.29E-05,0.013343601
-4.28E-05,0.009612331
-4.28E-05,0.009612331
-4.28E-05,-0.009044019
-4.28E-05,-0.005312749
-4.28E-05,0.005881061
-4.27E-05,0.009612331
-4.27E-05,0.002149791
-4.27E-05,0.002149791
-4.27E-05,-0.001581479
-4.27E-05,-0.001581479
-4.26E-05,-0.005312749
-4.26E-05,-0.001581479
-4.26E-05,0.002149791
-4.26E-05,0.005881061
-4.26E-05,-0.012775289
-4.25E-05,-0.001581479
-4.25E-05,0.002149791
-4.25E-05,0.002149791
-4.25E-05,-0.005312749
-4.25E-05,0.005881061
-4.24E-05,0.002149791
-4.24E-05,0.005881061
-4.24E-05,0.002149791
-4.24E-05,0.002149791
-4.24E-05,0.002149791
-4.23E-05,0.002149791
-4.23E-05,-0.001581479
-4.23E-05,0.002149791
-4.23E-05,-0.001581479
-4.23E-05,0.002149791
-4.22E-05,0.002149791
-4.22E-05,-0.001581479
-4.22E-05,0.009612331
-4.22E-05,-0.009044019
-4.22E-05,-0.001581479
-4.21E-05,-0.001581479
-4.21E-05,0.002149791
-4.21E-05,0.002149791
-4.21E-05,0.005881061
-4.21E-05,0.017074871
-4.20E-05,-0.001581479
-4.20E-05,-0.009044019
-4.20E-05,0.002149791
-4.20E-05,-0.001581479
-4.20E-05,0.002149791
-4.19E-05,-0.012775289
-4.19E-05,0.002149791
-4.19E-05,0.002149791
-4.19E-05,-0.001581479
-4.19E-05,0.009612331
-4.18E-05,-0.001581479
-4.18E-05,0.009612331
-4.18E-05,-0.005312749
-4.18E-05,-0.005312749
-4.18E-05,0.002149791
-4.17E-05,0.005881061
-4.17E-05,0.005881061
-4.17E-05,0.005881061
-4.17E-05,0.005881061
-4.17E-05,0.002149791
-4.16E-05,-0.005312749
-4.16E-05,0.002149791
-4.16E-05,0.002149791
-4.16E-05,0.009612331
-4.16E-05,0.002149791
-4.15E-05,-0.009044019
-4.15E-05,-0.005312749
-4.15E-05,-0.001581479
-4.15E-05,0.002149791
-4.15E-05,0.002149791
-4.14E-05,-0.001581479
-4.14E-05,0.005881061
-4.14E-05,-0.009044019
-4.14E-05,0.005881061
-4.14E-05,0.009612331
-4.13E-05,-0.005312749
-4.13E-05,-0.001581479
-4.13E-05,-0.001581479
-4.13E-05,0.002149791
-4.13E-05,0.002149791
-4.12E-05,-0.005312749
-4.12E-05,-0.001581479
-4.12E-05,0.002149791
-4.12E-05,-0.005312749
-4.12E-05,-0.005312749
-4.11E-05,-0.009044019
-4.11E-05,0.005881061
-4.11E-05,0.002149791
-4.11E-05,-0.001581479
-4.11E-05,0.009612331
-4.10E-05,0.002149791
-4.10E-05,0.002149791
-4.10E-05,0.009612331
-4.10E-05,0.013343601
-4.10E-05,-0.005312749
-4.09E-05,0.002149791
-4.09E-05,-0.001581479
-4.09E-05,0.002149791
-4.09E-05,-0.005312749
-4.09E-05,-0.009044019
-4.08E-05,0.009612331
-4.08E-05,-0.005312749
-4.08E-05,0.005881061
-4.08E-05,-0.009044019
-4.08E-05,-0.016506559
-4.07E-05,0.002149791
-4.07E-05,-0.005312749
-4.07E-05,0.009612331
-4.07E-05,0.005881061
-4.07E-05,0.002149791
-4.06E-05,0.005881061
-4.06E-05,-0.005312749
-4.06E-05,0.009612331
-4.06E-05,-0.001581479
-4.06E-05,0.002149791
-4.05E-05,0.002149791
-4.05E-05,-0.005312749
-4.05E-05,0.005881061
-4.05E-05,-0.009044019
-4.05E-05,0.002149791
-4.04E-05,0.013343601
-4.04E-05,0.002149791
-4.04E-05,-0.001581479
-4.04E-05,0.002149791
-4.04E-05,0.013343601
-4.03E-05,0.002149791
-4.03E-05,-0.001581479
-4.03E-05,0.013343601
-4.03E-05,-0.001581479
-4.03E-05,-0.001581479
-4.02E-05,0.005881061
-4.02E-05,0.002149791
-4.02E-05,0.002149791
-4.02E-05,-0.005312749
-4.02E-05,-0.001581479
-4.01E-05,-0.009044019
-4.01E-05,-0.001581479
-4.01E-05,-0.009044019
-4.01E-05,0.002149791
-4.01E-05,-0.005312749
-4.00E-05,-0.005312749
-4.00E-05,-0.005312749
-4.00E-05,0.009612331
-4.00E-05,-0.005312749
-4.00E-05,-0.005312749
-3.99E-05,0.002149791
-3.99E-05,-0.001581479
-3.99E-05,-0.001581479
-3.99E-05,-0.009044019
-3.99E-05,0.002149791
-3.98E-05,-0.001581479
-3.98E-05,-0.001581479
-3.98E-05,-0.001581479
-3.98E-05,-0.009044019
-3.98E-05,-0.001581479
-3.97E-05,-0.001581479
-3.97E-05,0.002149791
-3.97E-05,0.002149791
-3.97E-05,0.009612331
-3.97E-05,0.005881061
-3.96E-05,-0.005312749
-3.96E-05,0.009612331
-3.96E-05,-0.001581479
-3.96E-05,-0.005312749
-3.96E-05,0.002149791
-3.95E-05,-0.005312749
-3.95E-05,-0.009044019
-3.95E-05,0.009612331
-3.95E-05,0.002149791
-3.95E-05,0.002149791
-3.94E-05,-0.001581479
-3.94E-05,0.002149791
-3.94E-05,0.002149791
-3.94E-05,-0.009044019
-3.94E-05,-0.001581479
-3.93E-05,-0.001581479
-3.93E-05,-0.012775289
-3.93E-05,0.009612331
-3.93E-05,-0.005312749
-3.93E-05,-0.012775289
-3.92E-05,0.009612331
-3.92E-05,-0.001581479
-3.92E-05,-0.005312749
-3.92E-05,-0.001581479
-3.92E-05,-0.005312749
-3.91E-05,-0.005312749
-3.91E-05,-0.001581479
-3.91E-05,-0.001581479
-3.91E-05,0.005881061
-3.91E-05,-0.005312749
-3.90E-05,0.005881061
-3.90E-05,-0.012775289
-3.90E-05,0.002149791
-3.90E-05,-0.005312749
-3.90E-05,0.005881061
-3.89E-05,-0.016506559
-3.89E-05,-0.005312749
-3.89E-05,-0.009044019
-3.89E-05,0.002149791
-3.89E-05,-0.020237829
-3.88E-05,-0.005312749
-3.88E-05,0.002149791
-3.88E-05,-0.001581479
-3.88E-05,-0.005312749
-3.88E-05,-0.012775289
-3.87E-05,-0.009044019
-3.87E-05,0.005881061
-3.87E-05,0.002149791
-3.87E-05,-0.009044019
-3.87E-05,-0.009044019
-3.86E-05,-0.009044019
-3.86E-05,0.002149791
-3.86E-05,-0.001581479
-3.86E-05,-0.005312749
-3.86E-05,0.002149791
-3.85E-05,-0.001581479
-3.85E-05,-0.001581479
-3.85E-05,-0.001581479
-3.85E-05,-0.009044019
-3.85E-05,-0.005312749
-3.84E-05,-0.012775289
-3.84E-05,-0.020237829
-3.84E-05,-0.005312749
-3.84E-05,-0.009044019
-3.84E-05,-0.005312749
-3.83E-05,-0.001581479
-3.83E-05,-0.009044019
-3.83E-05,0.002149791
-3.83E-05,-0.020237829
-3.83E-05,-0.016506559
-3.82E-05,-0.012775289
-3.82E-05,-0.012775289
-3.82E-05,0.005881061
-3.82E-05,0.005881061
-3.82E-05,0.002149791
-3.81E-05,-0.009044019
-3.81E-05,-0.001581479
-3.81E-05,-0.005312749
-3.81E-05,0.002149791
-3.81E-05,0.002149791
-3.80E-05,-0.009044019
-3.80E-05,-0.005312749
-3.80E-05,-0.009044019
-3.80E-05,0.002149791
-3.80E-05,-0.009044019
-3.79E-05,-0.001581479
-3.79E-05,-0.009044019
-3.79E-05,0.009612331
-3.79E-05,0.002149791
-3.79E-05,-0.005312749
-3.78E-05,0.009612331
-3.78E-05,0.002149791
-3.78E-05,-0.020237829
-3.78E-05,0.002149791
-3.78E-05,-0.016506559
-3.77E-05,-0.001581479
-3.77E-05,-0.001581479
-3.77E-05,-0.009044019
-3.77E-05,-0.001581479
-3.77E-05,-0.009044019
-3.76E-05,-0.009044019
-3.76E-05,-0.001581479
-3.76E-05,-0.001581479
-3.76E-05,0.002149791
-3.76E-05,-0.001581479
-3.75E-05,0.005881061
-3.75E-05,-0.001581479
-3.75E-05,-0.001581479
-3.75E-05,0.005881061
-3.75E-05,0.002149791
-3.74E-05,0.002149791
-3.74E-05,-0.005312749
-3.74E-05,0.002149791
-3.74E-05,0.005881061
-3.74E-05,-0.001581479
-3.73E-05,0.009612331
-3.73E-05,-0.005312749
-3.73E-05,-0.005312749
-3.73E-05,-0.009044019
-3.73E-05,-0.001581479
-3.72E-05,-0.005312749
-3.72E-05,-0.001581479
-3.72E-05,-0.005312749
-3.72E-05,-0.001581479
-3.72E-05,0.009612331
-3.71E-05,0.002149791
-3.71E-05,-0.005312749
-3.71E-05,0.005881061
-3.71E-05,0.002149791
-3.71E-05,0.002149791
-3.70E-05,0.009612331
-3.70E-05,-0.009044019
-3.70E-05,-0.001581479
-3.70E-05,0.005881061
-3.70E-05,-0.009044019
-3.69E-05,-0.001581479
-3.69E-05,-0.005312749
-3.69E-05,-0.005312749
-3.69E-05,0.009612331
-3.69E-05,0.002149791
-3.68E-05,-0.005312749
-3.68E-05,-0.001581479
-3.68E-05,-0.001581479
-3.68E-05,0.002149791
-3.68E-05,-0.001581479
-3.67E-05,-0.001581479
-3.67E-05,-0.001581479
-3.67E-05,0.005881061
-3.67E-05,0.002149791
-3.67E-05,0.002149791
-3.66E-05,-0.005312749
-3.66E-05,0.002149791
-3.66E-05,0.002149791
-3.66E-05,-0.005312749
-3.66E-05,-0.009044019
-3.65E-05,-0.005312749
-3.65E-05,0.002149791
-3.65E-05,0.002149791
-3.65E-05,0.002149791
-3.65E-05,0.002149791
-3.64E-05,0.002149791
-3.64E-05,0.002149791
-3.64E-05,0.002149791
-3.64E-05,0.002149791
-3.64E-05,0.002149791
-3.63E-05,-0.001581479
-3.63E-05,-0.009044019
-3.63E-05,0.002149791
-3.63E-05,0.002149791
-3.63E-05,-0.009044019
-3.62E-05,0.002149791
-3.62E-05,-0.001581479
-3.62E-05,-0.001581479
-3.62E-05,-0.001581479
-3.62E-05,-0.005312749
-3.61E-05,-0.005312749
-3.61E-05,0.002149791
-3.61E-05,0.009612331
-3.61E-05,-0.009044019
-3.61E-05,-0.005312749
-3.60E-05,-0.009044019
-3.60E-05,-0.009044019
-3.60E-05,-0.001581479
-3.60E-05,0.002149791
-3.60E-05,-0.005312749
-3.59E-05,-0.005312749
-3.59E-05,-0.005312749
-3.59E-05,-0.001581479
-3.59E-05,-0.001581479
-3.59E-05,0.002149791
-3.58E-05,0.002149791
-3.58E-05,-0.001581479
-3.58E-05,-0.005312749
-3.58E-05,-0.001581479
-3.58E-05,-0.005312749
-3.57E-05,-0.005312749
-3.57E-05,-0.005312749
-3.57E-05,-0.005312749
-3.57E-05,0.002149791
-3.57E-05,0.005881061
-3.56E-05,-0.001581479
-3.56E-05,0.002149791
-3.56E-05,-0.005312749
-3.56E-05,-0.005312749
-3.56E-05,0.009612331
-3.55E-05,0.002149791
-3.55E-05,0.002149791
-3.55E-05,-0.005312749
-3.55E-05,0.002149791
-3.55E-05,-0.005312749
-3.54E-05,-0.001581479
-3.54E-05,0.002149791
-3.54E-05,0.002149791
-3.54E-05,-0.016506559
-3.54E-05,-0.009044019
-3.53E-05,-0.001581479
-3.53E-05,0.002149791
-3.53E-05,-0.001581479
-3.53E-05,-0.005312749
-3.53E-05,-0.005312749
-3.52E-05,-0.005312749
-3.52E-05,-0.005312749
-3.52E-05,0.002149791
-3.52E-05,-0.001581479
-3.52E-05,0.002149791
-3.51E-05,0.002149791
-3.51E-05,-0.005312749
-3.51E-05,-0.005312749
-3.51E-05,-0.001581479
-3.51E-05,-0.001581479
-3.50E-05,-0.005312749
-3.50E-05,0.002149791
-3.50E-05,0.002149791
-3.50E-05,-0.001581479
-3.50E-05,-0.005312749
-3.49E-05,0.002149791
-3.49E-05,0.002149791
-3.49E-05,0.005881061
-3.49E-05,-0.001581479
-3.49E-05,-0.005312749
-3.48E-05,0.009612331
-3.48E-05,-0.001581479
-3.48E-05,0.002149791
-3.48E-05,-0.005312749
-3.48E-05,-0.012775289
-3.47E-05,-0.005312749
-3.47E-05,0.005881061
-3.47E-05,0.005881061
-3.47E-05,-0.005312749
-3.47E-05,0.002149791
-3.46E-05,0.002149791
-3.46E-05,-0.001581479
-3.46E-05,-0.012775289
-3.46E-05,-0.005312749
-3.46E-05,-0.001581479
-3.45E-05,-0.005312749
-3.45E-05,-0.009044019
-3.45E-05,-0.005312749
-3.45E-05,-0.001581479
-3.45E-05,-0.001581479
-3.44E-05,0.002149791
-3.44E-05,-0.001581479
-3.44E-05,0.002149791
-3.44E-05,0.002149791
-3.44E-05,0.002149791
-3.43E-05,-0.001581479
-3.43E-05,0.005881061
-3.43E-05,0.002149791
-3.43E-05,-0.005312749
-3.43E-05,0.002149791
-3.42E-05,0.005881061
-3.42E-05,0.002149791
-3.42E-05,0.002149791
-3.42E-05,0.005881061
-3.42E-05,0.002149791
-3.41E-05,-0.005312749
-3.41E-05,0.009612331
-3.41E-05,0.002149791
-3.41E-05,0.002149791
-3.41E-05,-0.009044019
-3.40E-05,0.002149791
-3.40E-05,-0.009044019
-3.40E-05,-0.001581479
-3.40E-05,0.002149791
-3.40E-05,0.002149791
-3.39E-05,0.005881061
-3.39E-05,-0.009044019
-3.39E-05,-0.001581479
-3.39E-05,-0.001581479
-3.39E-05,-0.001581479
-3.38E-05,-0.001581479
-3.38E-05,-0.001581479
-3.38E-05,-0.001581479
-3.38E-05,-0.001581479
-3.38E-05,0.002149791
-3.37E-05,-0.005312749
-3.37E-05,0.009612331
-3.37E-05,0.002149791
-3.37E-05,-0.001581479
-3.37E-05,0.005881061
-3.36E-05,-0.001581479
-3.36E-05,-0.005312749
-3.36E-05,0.002149791
-3.36E-05,-0.012775289
-3.36E-05,-0.012775289
-3.35E-05,0.002149791
-3.35E-05,-0.005312749
-3.35E-05,-0.005312749
-3.35E-05,0.005881061
-3.35E-05,-0.012775289
-3.34E-05,0.005881061
-3.34E-05,-0.001581479
-3.34E-05,-0.005312749
-3.34E-05,-0.005312749
-3.34E-05,0.005881061
-3.33E-05,-0.001581479
-3.33E-05,-0.001581479
-3.33E-05,-0.009044019
-3.33E-05,0.002149791
-3.33E-05,0.002149791
-3.32E-05,-0.001581479
-3.32E-05,0.002149791
-3.32E-05,-0.005312749
-3.32E-05,-0.001581479
-3.32E-05,-0.001581479
-3.31E-05,0.005881061
-3.31E-05,0.002149791
-3.31E-05,-0.001581479
-3.31E-05,0.002149791
-3.31E-05,0.009612331
-3.30E-05,0.002149791
-3.30E-05,0.005881061
-3.30E-05,0.002149791
-3.30E-05,0.009612331
-3.30E-05,0.005881061
-3.29E-05,-0.001581479
-3.29E-05,0.013343601
-3.29E-05,-0.009044019
-3.29E-05,-0.001581479
-3.29E-05,0.002149791
-3.28E-05,0.002149791
-3.28E-05,0.002149791
-3.28E-05,-0.012775289
-3.28E-05,0.005881061
-3.28E-05,-0.009044019
-3.27E-05,-0.005312749
-3.27E-05,-0.001581479
-3.27E-05,-0.009044019
-3.27E-05,-0.009044019
-3.27E-05,-0.005312749
-3.26E-05,0.002149791
-3.26E-05,-0.005312749
-3.26E-05,-0.009044019
-3.26E-05,-0.016506559
-3.26E-05,-0.005312749
-3.25E-05,-0.001581479
-3.25E-05,-0.001581479
-3.25E-05,-0.005312749
-3.25E-05,-0.005312749
-3.25E-05,-0.009044019
-3.24E-05,-0.005312749
-3.24E-05,-0.005312749
-3.24E-05,0.002149791
-3.24E-05,0.002149791
-3.24E-05,0.002149791
-3.23E-05,0.009612331
-3.23E-05,-0.001581479
-3.23E-05,0.002149791
-3.23E-05,-0.009044019
-3.23E-05,0.002149791
-3.22E-05,0.002149791
-3.22E-05,0.002149791
-3.22E-05,-0.009044019
-3.22E-05,0.009612331
-3.22E-05,-0.005312749
-3.21E-05,-0.009044019
-3.21E-05,-0.012775289
-3.21E-05,-0.009044019
-3.21E-05,-0.001581479
-3.21E-05,0.002149791
-3.20E-05,-0.009044019
-3.20E-05,-0.016506559
-3.20E-05,-0.009044019
-3.20E-05,0.002149791
-3.20E-05,-0.005312749
-3.19E-05,-0.001581479
-3.19E-05,-0.009044019
-3.19E-05,-0.001581479
-3.19E-05,0.002149791
-3.19E-05,-0.009044019
-3.18E-05,-0.005312749
-3.18E-05,0.002149791
-3.18E-05,-0.001581479
-3.18E-05,-0.001581479
-3.18E-05,-0.005312749
-3.17E-05,-0.005312749
-3.17E-05,0.002149791
-3.17E-05,-0.005312749
-3.17E-05,0.002149791
-3.17E-05,0.002149791
-3.16E-05,-0.001581479
-3.16E-05,-0.009044019
-3.16E-05,0.002149791
-3.16E-05,0.002149791
-3.16E-05,0.005881061
-3.15E-05,-0.001581479
-3.15E-05,-0.001581479
-3.15E-05,-0.005312749
-3.15E-05,-0.005312749
-3.15E-05,0.005881061
-3.14E-05,0.002149791
-3.14E-05,0.002149791
-3.14E-05,0.002149791
-3.14E-05,-0.001581479
-3.14E-05,-0.001581479
-3.13E-05,-0.001581479
-3.13E-05,0.002149791
-3.13E-05,-0.012775289
-3.13E-05,-0.005312749
-3.13E-05,-0.001581479
-3.12E-05,-0.012775289
-3.12E-05,0.002149791
-3.12E-05,-0.012775289
-3.12E-05,-0.005312749
-3.12E-05,-0.001581479
-3.11E-05,-0.009044019
-3.11E-05,0.002149791
-3.11E-05,-0.005312749
-3.11E-05,-0.001581479
-3.11E-05,-0.009044019
-3.10E-05,-0.012775289
-3.10E-05,0.002149791
-3.10E-05,-0.001581479
-3.10E-05,-0.009044019
-3.10E-05,-0.005312749
-3.09E-05,-0.005312749
-3.09E-05,-0.016506559
-3.09E-05,-0.005312749
-3.09E-05,-0.001581479
-3.09E-05,0.002149791
-3.08E-05,0.002149791
-3.08E-05,0.002149791
-3.08E-05,-0.001581479
-3.08E-05,-0.005312749
-3.08E-05,-0.001581479
-3.07E-05,-0.005312749
-3.07E-05,-0.005312749
-3.07E-05,0.002149791
-3.07E-05,0.002149791
-3.07E-05,-0.001581479
-3.06E-05,-0.009044019
-3.06E-05,-0.009044019
-3.06E-05,-0.001581479
-3.06E-05,-0.005312749
-3.06E-05,-0.009044019
-3.05E-05,0.002149791
-3.05E-05,-0.001581479
-3.05E-05,0.005881061
-3.05E-05,-0.001581479
-3.05E-05,-0.001581479
-3.04E-05,0.009612331
-3.04E-05,-0.016506559
-3.04E-05,-0.001581479
-3.04E-05,0.005881061
-3.04E-05,-0.001581479
-3.03E-05,0.002149791
-3.03E-05,-0.009044019
-3.03E-05,-0.009044019
-3.03E-05,-0.005312749
-3.03E-05,0.005881061
-3.02E-05,-0.001581479
-3.02E-05,0.002149791
-3.02E-05,-0.005312749
-3.02E-05,0.002149791
-3.02E-05,0.002149791
-3.01E-05,-0.009044019
-3.01E-05,-0.009044019
-3.01E-05,-0.001581479
-3.01E-05,0.002149791
-3.01E-05,0.002149791
-3.00E-05,-0.005312749
-3.00E-05,-0.009044019
-3.00E-05,0.002149791
-3.00E-05,0.005881061
-3.00E-05,-0.001581479
-2.99E-05,-0.001581479
-2.99E-05,-0.001581479
-2.99E-05,-0.001581479
-2.99E-05,-0.001581479
-2.99E-05,-0.005312749
-2.98E-05,-0.005312749
-2.98E-05,-0.009044019
-2.98E-05,-0.001581479
-2.98E-05,-0.005312749
-2.98E-05,0.013343601
-2.97E-05,-0.001581479
-2.97E-05,-0.016506559
-2.97E-05,-0.001581479
-2.97E-05,-0.0239691
-2.97E-05,-0.009044019
-2.96E-05,-0.005312749
-2.96E-05,0.002149791
-2.96E-05,0.002149791
-2.96E-05,-0.001581479
-2.96E-05,0.002149791
-2.95E-05,-0.001581479
-2.95E-05,0.002149791
-2.95E-05,0.002149791
-2.95E-05,-0.005312749
-2.95E-05,-0.001581479
-2.94E-05,-0.001581479
-2.94E-05,0.002149791
-2.94E-05,-0.005312749
-2.94E-05,-0.001581479
-2.94E-05,0.005881061
-2.93E-05,-0.009044019
-2.93E-05,0.002149791
-2.93E-05,0.009612331
-2.93E-05,-0.001581479
-2.93E-05,0.013343601
-2.92E-05,0.002149791
-2.92E-05,0.013343601
-2.92E-05,0.005881061
-2.92E-05,0.002149791
-2.92E-05,0.002149791
-2.91E-05,-0.005312749
-2.91E-05,0.002149791
-2.91E-05,0.009612331
-2.91E-05,-0.005312749
-2.91E-05,0.002149791
-2.90E-05,-0.001581479
-2.90E-05,0.002149791
-2.90E-05,0.002149791
-2.90E-05,0.002149791
-2.90E-05,-0.012775289
-2.89E-05,-0.009044019
-2.89E-05,0.009612331
-2.89E-05,0.005881061
-2.89E-05,0.002149791
-2.89E-05,-0.001581479
-2.88E-05,-0.009044019
-2.88E-05,0.002149791
-2.88E-05,0.002149791
-2.88E-05,0.002149791
-2.88E-05,0.002149791
-2.87E-05,0.002149791
-2.87E-05,-0.001581479
-2.87E-05,0.005881061
-2.87E-05,0.002149791
-2.87E-05,-0.001581479
-2.86E-05,0.002149791
-2.86E-05,-0.001581479
-2.86E-05,-0.001581479
-2.86E-05,0.013343601
-2.86E-05,-0.009044019
-2.85E-05,0.002149791
-2.85E-05,-0.009044019
-2.85E-05,0.002149791
-2.85E-05,0.002149791
-2.85E-05,0.017074871
-2.84E-05,0.002149791
-2.84E-05,0.002149791
-2.84E-05,-0.005312749
-2.84E-05,-0.009044019
-2.84E-05,-0.001581479
-2.83E-05,-0.005312749
-2.83E-05,-0.012775289
-2.83E-05,-0.005312749
-2.83E-05,-0.009044019
-2.83E-05,-0.001581479
-2.82E-05,-0.005312749
-2.82E-05,-0.001581479
-2.82E-05,0.002149791
-2.82E-05,0.002149791
-2.82E-05,-0.005312749
-2.81E-05,0.005881061
-2.81E-05,0.002149791
-2.81E-05,-0.005312749
-2.81E-05,0.002149791
-2.81E-05,0.002149791
-2.80E-05,-0.001581479
-2.80E-05,0.002149791
-2.80E-05,0.002149791
-2.80E-05,-0.001581479
-2.80E-05,-0.005312749
-2.79E-05,0.002149791
-2.79E-05,-0.009044019
-2.79E-05,0.002149791
-2.79E-05,0.002149791
-2.79E-05,0.005881061
-2.78E-05,-0.001581479
-2.78E-05,-0.009044019
-2.78E-05,-0.005312749
-2.78E-05,-0.009044019
-2.78E-05,0.005881061
-2.77E-05,0.005881061
-2.77E-05,0.002149791
-2.77E-05,-0.005312749
-2.77E-05,0.005881061
-2.77E-05,-0.009044019
-2.76E-05,-0.001581479
-2.76E-05,-0.005312749
-2.76E-05,-0.005312749
-2.76E-05,0.009612331
-2.76E-05,0.005881061
-2.75E-05,-0.009044019
-2.75E-05,-0.012775289
-2.75E-05,-0.001581479
-2.75E-05,0.002149791
-2.75E-05,-0.001581479
-2.74E-05,0.009612331
-2.74E-05,0.002149791
-2.74E-05,0.005881061
-2.74E-05,0.002149791
-2.74E-05,0.013343601
-2.73E-05,-0.001581479
-2.73E-05,-0.012775289
-2.73E-05,0.002149791
-2.73E-05,-0.005312749
-2.73E-05,-0.005312749
-2.72E-05,0.002149791
-2.72E-05,-0.009044019
-2.72E-05,-0.001581479
-2.72E-05,-0.009044019
-2.72E-05,-0.001581479
-2.71E-05,-0.009044019
-2.71E-05,-0.001581479
-2.71E-05,-0.005312749
-2.71E-05,-0.012775289
-2.71E-05,-0.001581479
-2.70E-05,-0.016506559
-2.70E-05,0.002149791
-2.70E-05,-0.009044019
-2.70E-05,0.005881061
-2.70E-05,-0.001581479
-2.69E-05,-0.005312749
-2.69E-05,-0.005312749
-2.69E-05,0.009612331
-2.69E-05,-0.001581479
-2.69E-05,0.009612331
-2.68E-05,0.002149791
-2.68E-05,0.002149791
-2.68E-05,0.002149791
-2.68E-05,0.005881061
-2.68E-05,-0.005312749
-2.67E-05,0.013343601
-2.67E-05,-0.005312749
-2.67E-05,0.002149791
-2.67E-05,-0.005312749
-2.67E-05,0.002149791
-2.66E-05,-0.001581479
-2.66E-05,-0.005312749
-2.66E-05,-0.005312749
-2.66E-05,0.002149791
-2.66E-05,0.013343601
-2.65E-05,0.002149791
-2.65E-05,0.002149791
-2.65E-05,0.002149791
-2.65E-05,-0.001581479
-2.65E-05,0.002149791
-2.64E-05,0.002149791
-2.64E-05,-0.001581479
-2.64E-05,0.002149791
-2.64E-05,-0.001581479
-2.64E-05,-0.009044019
-2.63E-05,0.002149791
-2.63E-05,0.002149791
-2.63E-05,0.002149791
-2.63E-05,-0.005312749
-2.63E-05,0.005881061
-2.62E-05,-0.001581479
-2.62E-05,0.002149791
-2.62E-05,0.002149791
-2.62E-05,-0.016506559
-2.62E-05,-0.001581479
-2.61E-05,0.002149791
-2.61E-05,-0.001581479
-2.61E-05,0.002149791
-2.61E-05,-0.012775289
-2.61E-05,-0.012775289
-2.60E-05,0.002149791
-2.60E-05,0.002149791
-2.60E-05,0.002149791
-2.60E-05,-0.005312749
-2.60E-05,0.002149791
-2.59E-05,0.013343601
-2.59E-05,0.013343601
-2.59E-05,-0.016506559
-2.59E-05,-0.001581479
-2.59E-05,0.013343601
-2.58E-05,0.009612331
-2.58E-05,0.005881061
-2.58E-05,0.002149791
-2.58E-05,0.009612331
-2.58E-05,-0.001581479
-2.57E-05,0.013343601
-2.57E-05,0.002149791
-2.57E-05,0.002149791
-2.57E-05,-0.001581479
-2.57E-05,0.009612331
-2.56E-05,0.002149791
-2.56E-05,0.013343601
-2.56E-05,-0.001581479
-2.56E-05,0.017074871
-2.56E-05,-0.001581479
-2.55E-05,-0.005312749
-2.55E-05,0.002149791
-2.55E-05,0.002149791
-2.55E-05,0.005881061
-2.55E-05,0.009612331
-2.54E-05,0.009612331
-2.54E-05,-0.009044019
-2.54E-05,-0.001581479
-2.54E-05,0.017074871
-2.54E-05,-0.005312749
-2.53E-05,0.002149791
-2.53E-05,-0.001581479
-2.53E-05,0.005881061
-2.53E-05,0.002149791
-2.53E-05,0.005881061
-2.52E-05,0.002149791
-2.52E-05,-0.005312749
-2.52E-05,0.009612331
-2.52E-05,0.002149791
-2.52E-05,0.005881061
-2.51E-05,0.002149791
-2.51E-05,0.002149791
-2.51E-05,0.017074871
-2.51E-05,0.005881061
-2.51E-05,0.017074871
-2.50E-05,0.005881061
-2.50E-05,0.009612331
-2.50E-05,0.017074871
-2.50E-05,0.005881061
-2.50E-05,0.013343601
-2.49E-05,0.009612331
-2.49E-05,0.002149791
-2.49E-05,-0.001581479
-2.49E-05,-0.001581479
-2.49E-05,0.013343601
-2.48E-05,-0.001581479
-2.48E-05,0.013343601
-2.48E-05,0.002149791
-2.48E-05,0.005881061
-2.48E-05,0.009612331
-2.47E-05,-0.009044019
-2.47E-05,-0.001581479
-2.47E-05,-0.001581479
-2.47E-05,0.005881061
-2.47E-05,0.002149791
-2.46E-05,-0.001581479
-2.46E-05,0.005881061
-2.46E-05,0.002149791
-2.46E-05,0.005881061
-2.46E-05,0.002149791
-2.45E-05,0.013343601
-2.45E-05,-0.005312749
-2.45E-05,0.005881061
-2.45E-05,-0.009044019
-2.45E-05,-0.001581479
-2.44E-05,0.002149791
-2.44E-05,-0.005312749
-2.44E-05,0.009612331
-2.44E-05,0.005881061
-2.44E-05,0.005881061
-2.43E-05,0.002149791
-2.43E-05,0.002149791
-2.43E-05,0.005881061
-2.43E-05,0.009612331
-2.43E-05,0.017074871
-2.42E-05,-0.001581479
-2.42E-05,0.002149791
-2.42E-05,-0.001581479
-2.42E-05,-0.012775289
-2.42E-05,0.002149791
-2.41E-05,-0.005312749
-2.41E-05,0.005881061
-2.41E-05,-0.005312749
-2.41E-05,-0.005312749
-2.41E-05,0.005881061
-2.40E-05,0.002149791
-2.40E-05,-0.001581479
-2.40E-05,0.002149791
-2.40E-05,0.002149791
-2.40E-05,-0.001581479
-2.39E-05,-0.001581479
-2.39E-05,0.002149791
-2.39E-05,-0.009044019
-2.39E-05,0.013343601
-2.39E-05,0.002149791
-2.38E-05,0.002149791
-2.38E-05,0.005881061
-2.38E-05,0.005881061
-2.38E-05,-0.005312749
-2.38E-05,0.005881061
-2.37E-05,0.005881061
-2.37E-05,-0.009044019
-2.37E-05,-0.001581479
-2.37E-05,-0.009044019
-2.37E-05,0.002149791
-2.36E-05,0.002149791
-2.36E-05,-0.005312749
-2.36E-05,-0.016506559
-2.36E-05,0.005881061
-2.36E-05,-0.005312749
-2.35E-05,0.002149791
-2.35E-05,-0.001581479
-2.35E-05,0.005881061
-2.35E-05,0.002149791
-2.35E-05,0.009612331
-2.34E-05,-0.009044019
-2.34E-05,0.002149791
-2.34E-05,-0.005312749
-2.34E-05,0.002149791
-2.34E-05,-0.005312749
-2.33E-05,-0.005312749
-2.33E-05,-0.005312749
-2.33E-05,0.002149791
-2.33E-05,0.002149791
-2.33E-05,-0.001581479
-2.32E-05,-0.005312749
-2.32E-05,0.002149791
-2.32E-05,-0.012775289
-2.32E-05,0.002149791
-2.32E-05,-0.001581479
-2.31E-05,-0.009044019
-2.31E-05,-0.005312749
-2.31E-05,-0.012775289
-2.31E-05,0.002149791
-2.31E-05,0.002149791
-2.30E-05,-0.009044019
-2.30E-05,-0.016506559
-2.30E-05,-0.005312749
-2.30E-05,-0.001581479
-2.30E-05,-0.001581479
-2.29E-05,-0.009044019
-2.29E-05,-0.005312749
-2.29E-05,-0.005312749
-2.29E-05,-0.009044019
-2.29E-05,-0.001581479
-2.28E-05,-0.009044019
-2.28E-05,0.002149791
-2.28E-05,0.002149791
-2.28E-05,-0.001581479
-2.28E-05,0.002149791
-2.27E-05,-0.001581479
-2.27E-05,-0.001581479
-2.27E-05,0.002149791
-2.27E-05,-0.005312749
-2.27E-05,0.005881061
-2.26E-05,0.002149791
-2.26E-05,-0.001581479
-2.26E-05,0.005881061
-2.26E-05,0.005881061
-2.26E-05,-0.005312749
-2.25E-05,0.002149791
-2.25E-05,-0.009044019
-2.25E-05,0.002149791
-2.25E-05,-0.001581479
-2.25E-05,0.002149791
-2.24E-05,-0.001581479
-2.24E-05,-0.001581479
-2.24E-05,-0.001581479
-2.24E-05,-0.009044019
-2.24E-05,-0.001581479
-2.23E-05,-0.012775289
-2.23E-05,-0.005312749
-2.23E-05,-0.001581479
-2.23E-05,0.005881061
-2.23E-05,0.002149791
-2.22E-05,0.002149791
-2.22E-05,0.002149791
-2.22E-05,-0.012775289
-2.22E-05,-0.005312749
-2.22E-05,-0.009044019
-2.21E-05,-0.005312749
-2.21E-05,-0.001581479
-2.21E-05,-0.012775289
-2.21E-05,-0.009044019
-2.21E-05,0.002149791
-2.20E-05,-0.0239691
-2.20E-05,0.002149791
-2.20E-05,-0.001581479
-2.20E-05,-0.009044019
-2.20E-05,0.002149791
-2.19E-05,-0.001581479
-2.19E-05,0.002149791
-2.19E-05,-0.005312749
-2.19E-05,0.002149791
-2.19E-05,-0.012775289
-2.18E-05,-0.009044019
-2.18E-05,0.005881061
-2.18E-05,-0.001581479
-2.18E-05,-0.009044019
-2.18E-05,-0.001581479
-2.17E-05,0.002149791
-2.17E-05,-0.005312749
-2.17E-05,0.002149791
-2.17E-05,-0.005312749
-2.17E-05,0.002149791
-2.16E-05,-0.012775289
-2.16E-05,-0.005312749
-2.16E-05,-0.001581479
-2.16E-05,0.002149791
-2.16E-05,-0.001581479
-2.15E-05,-0.005312749
-2.15E-05,-0.005312749
-2.15E-05,-0.005312749
-2.15E-05,0.013343601
-2.15E-05,-0.005312749
-2.14E-05,-0.001581479
-2.14E-05,-0.005312749
-2.14E-05,-0.009044019
-2.14E-05,0.013343601
-2.14E-05,0.005881061
-2.13E-05,-0.005312749
-2.13E-05,-0.009044019
-2.13E-05,0.002149791
-2.13E-05,-0.009044019
-2.13E-05,0.002149791
-2.12E-05,0.002149791
-2.12E-05,-0.005312749
-2.12E-05,-0.009044019
-2.12E-05,0.009612331
-2.12E-05,-0.001581479
-2.11E-05,0.005881061
-2.11E-05,-0.001581479
-2.11E-05,0.005881061
-2.11E-05,-0.005312749
-2.11E-05,0.005881061
-2.10E-05,-0.001581479
-2.10E-05,0.005881061
-2.10E-05,-0.009044019
-2.10E-05,-0.001581479
-2.10E-05,-0.001581479
-2.09E-05,-0.005312749
-2.09E-05,0.009612331
-2.09E-05,-0.009044019
-2.09E-05,-0.001581479
-2.09E-05,-0.001581479
-2.08E-05,-0.009044019
-2.08E-05,0.009612331
-2.08E-05,-0.001581479
-2.08E-05,-0.001581479
-2.08E-05,-0.001581479
-2.07E-05,-0.005312749
-2.07E-05,0.002149791
-2.07E-05,-0.005312749
-2.07E-05,0.005881061
-2.07E-05,-0.009044019
-2.06E-05,0.002149791
-2.06E-05,0.009612331
-2.06E-05,-0.005312749
-2.06E-05,-0.001581479
-2.06E-05,0.005881061
-2.05E-05,0.005881061
-2.05E-05,0.002149791
-2.05E-05,0.002149791
-2.05E-05,-0.001581479
-2.05E-05,-0.005312749
-2.04E-05,-0.001581479
-2.04E-05,0.009612331
-2.04E-05,-0.001581479
-2.04E-05,-0.001581479
-2.04E-05,0.005881061
-2.03E-05,0.005881061
-2.03E-05,-0.001581479
-2.03E-05,0.009612331
-2.03E-05,-0.001581479
-2.03E-05,0.002149791
-2.02E-05,0.009612331
-2.02E-05,-0.009044019
-2.02E-05,-0.001581479
-2.02E-05,-0.001581479
-2.02E-05,0.009612331
-2.01E-05,0.005881061
-2.01E-05,-0.001581479
-2.01E-05,0.002149791
-2.01E-05,0.005881061
-2.01E-05,0.002149791
-2.00E-05,-0.001581479
-2.00E-05,0.002149791
-2.00E-05,-0.009044019
-2.00E-05,0.005881061
-2.00E-05,0.005881061
-1.99E-05,-0.001581479
-1.99E-05,-0.001581479
-1.99E-05,0.005881061
-1.99E-05,0.009612331
-1.99E-05,0.009612331
-1.98E-05,0.002149791
-1.98E-05,0.005881061
-1.98E-05,0.005881061
-1.98E-05,0.002149791
-1.98E-05,0.005881061
-1.97E-05,0.002149791
-1.97E-05,0.005881061
-1.97E-05,0.005881061
-1.97E-05,0.005881061
-1.97E-05,-0.005312749
-1.96E-05,0.002149791
-1.96E-05,-0.009044019
-1.96E-05,0.002149791
-1.96E-05,0.005881061
-1.96E-05,0.002149791
-1.95E-05,0.002149791
-1.95E-05,-0.001581479
-1.95E-05,0.009612331
-1.95E-05,0.005881061
-1.95E-05,0.002149791
-1.94E-05,0.002149791
-1.94E-05,-0.001581479
-1.94E-05,-0.005312749
-1.94E-05,0.002149791
-1.94E-05,0.002149791
-1.93E-05,0.009612331
-1.93E-05,0.002149791
-1.93E-05,-0.001581479
-1.93E-05,0.013343601
-1.93E-05,0.002149791
-1.92E-05,-0.009044019
-1.92E-05,-0.005312749
-1.92E-05,0.002149791
-1.92E-05,0.002149791
-1.92E-05,0.002149791
-1.91E-05,0.002149791
-1.91E-05,-0.001581479
-1.91E-05,0.002149791
-1.91E-05,-0.001581479
-1.91E-05,-0.009044019
-1.90E-05,-0.012775289
-1.90E-05,0.005881061
-1.90E-05,-0.005312749
-1.90E-05,-0.001581479
-1.90E-05,0.002149791
-1.89E-05,-0.009044019
-1.89E-05,-0.005312749
-1.89E-05,-0.005312749
-1.89E-05,0.002149791
-1.89E-05,-0.005312749
-1.88E-05,0.002149791
-1.88E-05,0.005881061
-1.88E-05,0.002149791
-1.88E-05,0.002149791
-1.88E-05,0.002149791
-1.87E-05,0.002149791
-1.87E-05,0.002149791
-1.87E-05,-0.005312749
-1.87E-05,0.002149791
-1.87E-05,-0.009044019
-1.86E-05,0.002149791
-1.86E-05,0.005881061
-1.86E-05,-0.001581479
-1.86E-05,-0.001581479
-1.86E-05,-0.001581479
-1.85E-05,0.002149791
-1.85E-05,0.002149791
-1.85E-05,0.002149791
-1.85E-05,0.002149791
-1.85E-05,0.002149791
-1.84E-05,0.009612331
-1.84E-05,-0.001581479
-1.84E-05,0.002149791
-1.84E-05,0.002149791
-1.84E-05,-0.005312749
-1.83E-05,-0.005312749
-1.83E-05,-0.001581479
-1.83E-05,-0.001581479
-1.83E-05,0.002149791
-1.83E-05,0.009612331
-1.82E-05,0.013343601
-1.82E-05,0.002149791
-1.82E-05,0.002149791
-1.82E-05,-0.001581479
-1.82E-05,0.002149791
-1.81E-05,0.002149791
-1.81E-05,0.009612331
-1.81E-05,0.005881061
-1.81E-05,-0.001581479
-1.81E-05,-0.001581479
-1.80E-05,-0.001581479
-1.80E-05,0.013343601
-1.80E-05,0.005881061
-1.80E-05,0.002149791
-1.80E-05,0.002149791
-1.79E-05,-0.001581479
-1.79E-05,-0.005312749
-1.79E-05,-0.001581479
-1.79E-05,-0.005312749
-1.79E-05,0.002149791
-1.78E-05,0.005881061
-1.78E-05,0.013343601
-1.78E-05,0.005881061
-1.78E-05,0.002149791
-1.78E-05,-0.001581479
-1.77E-05,0.002149791
-1.77E-05,0.002149791
-1.77E-05,0.002149791
-1.77E-05,0.002149791
-1.77E-05,0.002149791
-1.76E-05,0.002149791
-1.76E-05,0.005881061
-1.76E-05,0.002149791
-1.76E-05,0.002149791
-1.76E-05,0.002149791
-1.75E-05,-0.001581479
-1.75E-05,0.002149791
-1.75E-05,0.005881061
-1.75E-05,0.002149791
-1.75E-05,0.002149791
-1.74E-05,0.005881061
-1.74E-05,-0.005312749
-1.74E-05,0.002149791
-1.74E-05,-0.005312749
-1.74E-05,0.002149791
-1.73E-05,-0.005312749
-1.73E-05,0.005881061
-1.73E-05,0.002149791
-1.73E-05,-0.005312749
-1.73E-05,0.002149791
-1.72E-05,0.005881061
-1.72E-05,-0.001581479
-1.72E-05,0.002149791
-1.72E-05,0.002149791
-1.72E-05,0.002149791
-1.71E-05,-0.005312749
-1.71E-05,-0.009044019
-1.71E-05,0.005881061
-1.71E-05,0.002149791
-1.71E-05,-0.009044019
-1.70E-05,-0.005312749
-1.70E-05,0.002149791
-1.70E-05,-0.001581479
-1.70E-05,-0.009044019
-1.70E-05,-0.005312749
-1.69E-05,-0.005312749
-1.69E-05,0.005881061
-1.69E-05,-0.009044019
-1.69E-05,-0.001581479
-1.69E-05,-0.009044019
-1.68E-05,0.002149791
-1.68E-05,0.002149791
-1.68E-05,0.002149791
-1.68E-05,0.002149791
-1.68E-05,0.002149791
-1.67E-05,-0.012775289
-1.67E-05,-0.005312749
-1.67E-05,-0.005312749
-1.67E-05,-0.005312749
-1.67E-05,-0.009044019
-1.66E-05,-0.012775289
-1.66E-05,0.002149791
-1.66E-05,-0.005312749
-1.66E-05,0.002149791
-1.66E-05,0.002149791
-1.65E-05,-0.005312749
-1.65E-05,0.002149791
-1.65E-05,0.002149791
-1.65E-05,-0.009044019
-1.65E-05,-0.001581479
-1.64E-05,-0.001581479
-1.64E-05,0.005881061
-1.64E-05,-0.016506559
-1.64E-05,-0.016506559
-1.64E-05,-0.001581479
-1.63E-05,-0.005312749
-1.63E-05,-0.001581479
-1.63E-05,-0.009044019
-1.63E-05,-0.001581479
-1.63E-05,0.002149791
-1.62E-05,-0.009044019
-1.62E-05,-0.005312749
-1.62E-05,-0.009044019
-1.62E-05,-0.001581479
-1.62E-05,-0.005312749
-1.61E-05,-0.009044019
-1.61E-05,-0.001581479
-1.61E-05,-0.005312749
-1.61E-05,0.002149791
-1.61E-05,0.002149791
-1.60E-05,-0.012775289
-1.60E-05,-0.005312749
-1.60E-05,0.002149791
-1.60E-05,0.005881061
-1.60E-05,0.002149791
-1.59E-05,-0.016506559
-1.59E-05,-0.020237829
-1.59E-05,-0.009044019
-1.59E-05,0.002149791
-1.59E-05,0.002149791
-1.58E-05,-0.001581479
-1.58E-05,0.002149791
-1.58E-05,-0.005312749
-1.58E-05,-0.005312749
-1.58E-05,-0.009044019
-1.57E-05,-0.005312749
-1.57E-05,0.002149791
-1.57E-05,0.002149791
-1.57E-05,-0.001581479
-1.57E-05,-0.005312749
-1.56E-05,-0.005312749
-1.56E-05,-0.005312749
-1.56E-05,-0.005312749
-1.56E-05,0.002149791
-1.56E-05,-0.005312749
-1.55E-05,0.005881061
-1.55E-05,-0.009044019
-1.55E-05,-0.005312749
-1.55E-05,0.002149791
-1.55E-05,-0.001581479
-1.54E-05,-0.005312749
-1.54E-05,0.002149791
-1.54E-05,-0.005312749
-1.54E-05,0.002149791
-1.54E-05,0.002149791
-1.53E-05,-0.012775289
-1.53E-05,0.002149791
-1.53E-05,-0.005312749
-1.53E-05,-0.005312749
-1.53E-05,0.002149791
-1.52E-05,-0.005312749
-1.52E-05,0.002149791
-1.52E-05,-0.012775289
-1.52E-05,0.005881061
-1.52E-05,-0.001581479
-1.51E-05,-0.005312749
-1.51E-05,-0.009044019
-1.51E-05,0.002149791
-1.51E-05,0.005881061
-1.51E-05,0.005881061
-1.50E-05,-0.001581479
-1.50E-05,-0.009044019
-1.50E-05,0.009612331
-1.50E-05,0.009612331
-1.50E-05,0.002149791
-1.49E-05,0.002149791
-1.49E-05,-0.005312749
-1.49E-05,0.002149791
-1.49E-05,0.005881061
-1.49E-05,0.002149791
-1.48E-05,-0.005312749
-1.48E-05,-0.001581479
-1.48E-05,0.002149791
-1.48E-05,-0.005312749
-1.48E-05,0.002149791
-1.47E-05,0.002149791
-1.47E-05,0.002149791
-1.47E-05,0.005881061
-1.47E-05,-0.001581479
-1.47E-05,-0.009044019
-1.46E-05,0.002149791
-1.46E-05,-0.005312749
-1.46E-05,-0.001581479
-1.46E-05,0.005881061
-1.46E-05,-0.001581479
-1.45E-05,-0.001581479
-1.45E-05,-0.005312749
-1.45E-05,-0.001581479
-1.45E-05,0.002149791
-1.45E-05,-0.005312749
-1.44E-05,-0.009044019
-1.44E-05,0.002149791
-1.44E-05,-0.005312749
-1.44E-05,0.002149791
-1.44E-05,-0.005312749
-1.43E-05,0.013343601
-1.43E-05,0.002149791
-1.43E-05,-0.009044019
-1.43E-05,-0.001581479
-1.43E-05,-0.009044019
-1.42E-05,0.002149791
-1.42E-05,0.002149791
-1.42E-05,-0.005312749
-1.42E-05,0.002149791
-1.42E-05,-0.001581479
-1.41E-05,0.005881061
-1.41E-05,-0.012775289
-1.41E-05,0.002149791
-1.41E-05,0.005881061
-1.41E-05,-0.001581479
-1.40E-05,-0.001581479
-1.40E-05,0.002149791
-1.40E-05,0.002149791
-1.40E-05,-0.009044019
-1.40E-05,-0.001581479
-1.39E-05,-0.005312749
-1.39E-05,0.002149791
-1.39E-05,0.002149791
-1.39E-05,0.002149791
-1.39E-05,-0.005312749
-1.38E-05,-0.012775289
-1.38E-05,0.002149791
-1.38E-05,-0.009044019
-1.38E-05,0.005881061
-1.38E-05,-0.012775289
-1.37E-05,-0.009044019
-1.37E-05,-0.005312749
-1.37E-05,0.002149791
-1.37E-05,-0.001581479
-1.37E-05,-0.001581479
-1.36E-05,-0.005312749
-1.36E-05,0.013343601
-1.36E-05,0.005881061
-1.36E-05,-0.005312749
-1.36E-05,0.005881061
-1.35E-05,0.009612331
-1.35E-05,0.005881061
-1.35E-05,0.002149791
-1.35E-05,-0.001581479
-1.35E-05,0.005881061
-1.34E-05,0.002149791
-1.34E-05,-0.005312749
-1.34E-05,0.009612331
-1.34E-05,0.002149791
-1.34E-05,0.009612331
-1.33E-05,-0.001581479
-1.33E-05,-0.009044019
-1.33E-05,0.002149791
-1.33E-05,0.002149791
-1.33E-05,0.002149791
-1.32E-05,0.005881061
-1.32E-05,0.002149791
-1.32E-05,0.002149791
-1.32E-05,0.017074871
-1.32E-05,0.005881061
-1.31E-05,-0.005312749
-1.31E-05,0.002149791
-1.31E-05,-0.005312749
-1.31E-05,-0.001581479
-1.31E-05,0.002149791
-1.30E-05,-0.016506559
-1.30E-05,-0.005312749
-1.30E-05,0.002149791
-1.30E-05,-0.001581479
-1.30E-05,-0.009044019
-1.29E-05,-0.001581479
-1.29E-05,-0.001581479
-1.29E-05,0.005881061
-1.29E-05,-0.001581479
-1.29E-05,0.002149791
-1.28E-05,-0.001581479
-1.28E-05,0.005881061
-1.28E-05,0.009612331
-1.28E-05,-0.005312749
-1.28E-05,-0.005312749
-1.27E-05,-0.005312749
-1.27E-05,0.002149791
-1.27E-05,0.005881061
-1.27E-05,0.002149791
-1.27E-05,-0.009044019
-1.26E-05,-0.012775289
-1.26E-05,0.002149791
-1.26E-05,0.002149791
-1.26E-05,-0.009044019
-1.26E-05,-0.009044019
-1.25E-05,0.002149791
-1.25E-05,-0.009044019
-1.25E-05,-0.001581479
-1.25E-05,-0.001581479
-1.25E-05,0.005881061
-1.24E-05,-0.016506559
-1.24E-05,0.002149791
-1.24E-05,-0.001581479
-1.24E-05,0.002149791
-1.24E-05,-0.001581479
-1.23E-05,-0.012775289
-1.23E-05,-0.005312749
-1.23E-05,-0.005312749
-1.23E-05,-0.009044019
-1.23E-05,0.002149791
-1.22E-05,-0.005312749
-1.22E-05,-0.001581479
-1.22E-05,-0.005312749
-1.22E-05,-0.012775289
-1.22E-05,0.002149791
-1.21E-05,-0.005312749
-1.21E-05,-0.009044019
-1.21E-05,-0.001581479
-1.21E-05,-0.001581479
-1.21E-05,-0.009044019
-1.20E-05,-0.005312749
-1.20E-05,-0.005312749
-1.20E-05,-0.009044019
-1.20E-05,-0.001581479
-1.20E-05,-0.012775289
-1.19E-05,-0.005312749
-1.19E-05,-0.009044019
-1.19E-05,-0.012775289
-1.19E-05,-0.012775289
-1.19E-05,-0.005312749
-1.18E-05,-0.005312749
-1.18E-05,-0.012775289
-1.18E-05,-0.012775289
-1.18E-05,-0.012775289
-1.18E-05,-0.005312749
-1.17E-05,-0.009044019
-1.17E-05,-0.016506559
-1.17E-05,-0.001581479
-1.17E-05,-0.005312749
-1.17E-05,-0.005312749
-1.16E-05,-0.016506559
-1.16E-05,-0.009044019
-1.16E-05,-0.005312749
-1.16E-05,-0.020237829
-1.16E-05,-0.012775289
-1.15E-05,-0.009044019
-1.15E-05,-0.001581479
-1.15E-05,-0.012775289
-1.15E-05,-0.005312749
-1.15E-05,-0.012775289
-1.14E-05,-0.001581479
-1.14E-05,-0.005312749
-1.14E-05,-0.009044019
-1.14E-05,-0.001581479
-1.14E-05,0.002149791
-1.13E-05,-0.012775289
-1.13E-05,-0.016506559
-1.13E-05,-0.009044019
-1.13E-05,0.002149791
-1.13E-05,-0.012775289
-1.12E-05,0.002149791
-1.12E-05,-0.001581479
-1.12E-05,-0.016506559
-1.12E-05,-0.005312749
-1.12E-05,-0.005312749
-1.11E-05,-0.016506559
-1.11E-05,-0.001581479
-1.11E-05,0.002149791
-1.11E-05,-0.001581479
-1.11E-05,0.002149791
-1.10E-05,-0.005312749
-1.10E-05,-0.001581479
-1.10E-05,-0.009044019
-1.10E-05,0.002149791
-1.10E-05,0.005881061
-1.09E-05,0.002149791
-1.09E-05,0.002149791
-1.09E-05,-0.001581479
-1.09E-05,-0.001581479
-1.09E-05,0.002149791
-1.08E-05,0.005881061
-1.08E-05,-0.009044019
-1.08E-05,0.009612331
-1.08E-05,-0.005312749
-1.08E-05,-0.012775289
-1.07E-05,-0.012775289
-1.07E-05,-0.005312749
-1.07E-05,0.002149791
-1.07E-05,-0.001581479
-1.07E-05,0.002149791
-1.06E-05,-0.001581479
-1.06E-05,-0.009044019
-1.06E-05,-0.005312749
-1.06E-05,-0.001581479
-1.06E-05,-0.005312749
-1.05E-05,-0.016506559
-1.05E-05,-0.012775289
-1.05E-05,0.002149791
-1.05E-05,0.002149791
-1.05E-05,0.002149791
-1.04E-05,0.009612331
-1.04E-05,-0.005312749
-1.04E-05,-0.012775289
-1.04E-05,0.002149791
-1.04E-05,-0.005312749
-1.03E-05,0.002149791
-1.03E-05,0.005881061
-1.03E-05,-0.005312749
-1.03E-05,-0.009044019
-1.03E-05,-0.009044019
-1.02E-05,0.002149791
-1.02E-05,0.002149791
-1.02E-05,-0.012775289
-1.02E-05,0.005881061
-1.02E-05,-0.005312749
-1.01E-05,-0.009044019
-1.01E-05,0.002149791
-1.01E-05,-0.009044019
-1.01E-05,0.002149791
-1.01E-05,0.002149791
-1.00E-05,0.002149791
-1.00E-05,-0.001581479
-9.99E-06,0.002149791
-9.97E-06,-0.005312749
-9.95E-06,-0.001581479
-9.93E-06,0.002149791
-9.91E-06,0.009612331
-9.89E-06,-0.005312749
-9.87E-06,0.002149791
-9.85E-06,-0.009044019
-9.83E-06,0.005881061
-9.81E-06,-0.005312749
-9.79E-06,-0.005312749
-9.77E-06,0.002149791
-9.75E-06,0.005881061
-9.73E-06,-0.001581479
-9.71E-06,0.002149791
-9.69E-06,0.005881061
-9.67E-06,-0.001581479
-9.65E-06,0.009612331
-9.63E-06,0.002149791
-9.61E-06,0.002149791
-9.59E-06,0.002149791
-9.57E-06,0.002149791
-9.55E-06,-0.012775289
-9.53E-06,0.005881061
-9.51E-06,-0.009044019
-9.49E-06,0.002149791
-9.47E-06,0.002149791
-9.45E-06,0.005881061
-9.43E-06,-0.009044019
-9.41E-06,0.002149791
-9.39E-06,0.002149791
-9.37E-06,0.002149791
-9.35E-06,-0.009044019
-9.33E-06,-0.001581479
-9.31E-06,0.009612331
-9.29E-06,0.005881061
-9.27E-06,-0.012775289
-9.25E-06,-0.001581479
-9.23E-06,-0.009044019
-9.21E-06,0.005881061
-9.19E-06,-0.001581479
-9.17E-06,-0.009044019
-9.15E-06,-0.016506559
-9.13E-06,-0.001581479
-9.11E-06,-0.012775289
-9.09E-06,-0.001581479
-9.07E-06,-0.016506559
-9.05E-06,-0.009044019
-9.03E-06,0.002149791
-9.01E-06,-0.009044019
-8.99E-06,0.002149791
-8.97E-06,-0.012775289
-8.95E-06,-0.009044019
-8.93E-06,-0.009044019
-8.91E-06,-0.001581479
-8.89E-06,-0.005312749
-8.87E-06,0.005881061
-8.85E-06,-0.001581479
-8.83E-06,-0.005312749
-8.81E-06,0.002149791
-8.79E-06,-0.012775289
-8.77E-06,-0.001581479
-8.75E-06,0.002149791
-8.73E-06,-0.001581479
-8.71E-06,-0.012775289
-8.69E-06,-0.001581479
-8.67E-06,-0.012775289
-8.65E-06,-0.001581479
-8.63E-06,-0.005312749
-8.61E-06,-0.001581479
-8.59E-06,-0.001581479
-8.57E-06,-0.012775289
-8.55E-06,-0.009044019
-8.53E-06,0.002149791
-8.51E-06,-0.001581479
-8.49E-06,0.005881061
-8.47E-06,0.005881061
-8.45E-06,-0.009044019
-8.43E-06,0.002149791
-8.41E-06,-0.012775289
-8.39E-06,-0.001581479
-8.37E-06,-0.001581479
-8.35E-06,0.002149791
-8.33E-06,-0.009044019
-8.31E-06,-0.005312749
-8.29E-06,0.002149791
-8.27E-06,-0.001581479
-8.25E-06,-0.001581479
-8.23E-06,-0.001581479
-8.21E-06,-0.012775289
-8.19E-06,0.002149791
-8.17E-06,-0.001581479
-8.15E-06,0.009612331
-8.13E-06,-0.016506559
-8.11E-06,0.002149791
-8.09E-06,-0.005312749
-8.07E-06,0.002149791
-8.05E-06,0.005881061
-8.03E-06,-0.012775289
-8.01E-06,-0.012775289
-7.99E-06,0.002149791
-7.97E-06,-0.009044019
-7.95E-06,-0.005312749
-7.93E-06,-0.012775289
-7.91E-06,-0.001581479
-7.89E-06,-0.009044019
-7.87E-06,-0.009044019
-7.85E-06,0.002149791
-7.83E-06,-0.001581479
-7.81E-06,-0.009044019
-7.79E-06,-0.005312749
-7.77E-06,-0.001581479
-7.75E-06,-0.016506559
-7.73E-06,-0.005312749
-7.71E-06,0.002149791
-7.69E-06,-0.001581479
-7.67E-06,-0.009044019
-7.65E-06,-0.012775289
-7.63E-06,-0.001581479
-7.61E-06,0.002149791
-7.59E-06,-0.009044019
-7.57E-06,-0.001581479
-7.55E-06,0.002149791
-7.53E-06,0.002149791
-7.51E-06,0.002149791
-7.49E-06,-0.012775289
-7.47E-06,-0.001581479
-7.45E-06,0.002149791
-7.43E-06,-0.009044019
-7.41E-06,0.005881061
-7.39E-06,-0.012775289
-7.37E-06,-0.009044019
-7.35E-06,-0.009044019
-7.33E-06,-0.005312749
-7.31E-06,0.002149791
-7.29E-06,0.005881061
-7.27E-06,0.002149791
-7.25E-06,-0.001581479
-7.23E-06,-0.005312749
-7.21E-06,-0.001581479
-7.19E-06,0.002149791
-7.17E-06,0.002149791
-7.15E-06,-0.009044019
-7.13E-06,0.002149791
-7.11E-06,0.002149791
-7.09E-06,-0.001581479
-7.07E-06,0.005881061
-7.05E-06,-0.001581479
-7.03E-06,0.002149791
-7.01E-06,-0.001581479
-6.99E-06,0.002149791
-6.97E-06,-0.012775289
-6.95E-06,-0.005312749
-6.93E-06,-0.001581479
-6.91E-06,-0.001581479
-6.89E-06,-0.009044019
-6.87E-06,-0.001581479
-6.85E-06,0.005881061
-6.83E-06,0.002149791
-6.81E-06,0.005881061
-6.79E-06,0.005881061
-6.77E-06,0.002149791
-6.75E-06,-0.005312749
-6.73E-06,-0.009044019
-6.71E-06,-0.009044019
-6.69E-06,-0.005312749
-6.67E-06,-0.001581479
-6.65E-06,-0.005312749
-6.63E-06,0.009612331
-6.61E-06,0.002149791
-6.59E-06,-0.005312749
-6.57E-06,-0.009044019
-6.55E-06,-0.005312749
-6.53E-06,0.002149791
-6.51E-06,-0.001581479
-6.49E-06,0.002149791
-6.47E-06,-0.005312749
-6.45E-06,-0.001581479
-6.43E-06,-0.001581479
-6.41E-06,-0.001581479
-6.39E-06,-0.005312749
-6.37E-06,0.005881061
-6.35E-06,-0.001581479
-6.33E-06,-0.001581479
-6.31E-06,0.009612331
-6.29E-06,-0.005312749
-6.27E-06,0.002149791
-6.25E-06,-0.001581479
-6.23E-06,0.005881061
-6.21E-06,-0.005312749
-6.19E-06,-0.009044019
-6.17E-06,0.005881061
-6.15E-06,-0.001581479
-6.13E-06,-0.001581479
-6.11E-06,-0.001581479
-6.09E-06,0.005881061
-6.07E-06,0.002149791
-6.05E-06,-0.005312749
-6.03E-06,-0.012775289
-6.01E-06,0.009612331
-5.99E-06,-0.001581479
-5.97E-06,-0.001581479
-5.95E-06,0.002149791
-5.93E-06,-0.005312749
-5.91E-06,-0.009044019
-5.89E-06,-0.001581479
-5.87E-06,-0.001581479
-5.85E-06,-0.001581479
-5.83E-06,0.002149791
-5.81E-06,-0.001581479
-5.79E-06,0.005881061
-5.77E-06,-0.005312749
-5.75E-06,0.009612331
-5.73E-06,0.002149791
-5.71E-06,-0.009044019
-5.69E-06,-0.001581479
-5.67E-06,0.005881061
-5.65E-06,-0.001581479
-5.63E-06,0.002149791
-5.61E-06,-0.005312749
-5.59E-06,-0.001581479
-5.57E-06,-0.016506559
-5.55E-06,-0.001581479
-5.53E-06,-0.001581479
-5.51E-06,-0.009044019
-5.49E-06,-0.012775289
-5.47E-06,-0.005312749
-5.45E-06,0.002149791
-5.43E-06,-0.012775289
-5.41E-06,0.002149791
-5.39E-06,-0.001581479
-5.37E-06,0.002149791
-5.35E-06,0.002149791
-5.33E-06,-0.001581479
-5.31E-06,0.002149791
-5.29E-06,-0.005312749
-5.27E-06,-0.005312749
-5.25E-06,0.002149791
-5.23E-06,-0.001581479
-5.21E-06,-0.009044019
-5.19E-06,-0.001581479
-5.17E-06,-0.005312749
-5.15E-06,-0.001581479
-5.13E-06,-0.005312749
-5.11E-06,-0.005312749
-5.09E-06,-0.001581479
-5.07E-06,-0.005312749
-5.05E-06,-0.005312749
-5.03E-06,0.013343601
-5.01E-06,-0.001581479
-4.99E-06,-0.009044019
-4.97E-06,-0.012775289
-4.95E-06,0.002149791
-4.93E-06,-0.001581479
-4.91E-06,-0.005312749
-4.89E-06,-0.016506559
-4.87E-06,-0.005312749
-4.85E-06,-0.001581479
-4.83E-06,-0.012775289
-4.81E-06,-0.001581479
-4.79E-06,-0.009044019
-4.77E-06,-0.012775289
-4.75E-06,-0.016506559
-4.73E-06,0.005881061
-4.71E-06,0.002149791
-4.69E-06,0.002149791
-4.67E-06,-0.001581479
-4.65E-06,-0.001581479
-4.63E-06,-0.012775289
-4.61E-06,-0.005312749
-4.59E-06,-0.009044019
-4.57E-06,-0.0239691
-4.55E-06,-0.009044019
-4.53E-06,-0.001581479
-4.51E-06,-0.012775289
-4.49E-06,-0.009044019
-4.47E-06,-0.009044019
-4.45E-06,-0.012775289
-4.43E-06,-0.012775289
-4.41E-06,0.002149791
-4.39E-06,-0.009044019
-4.37E-06,-0.009044019
-4.35E-06,-0.001581479
-4.33E-06,-0.012775289
-4.31E-06,-0.005312749
-4.29E-06,-0.005312749
-4.27E-06,-0.001581479
-4.25E-06,0.017074871
-4.23E-06,0.002149791
-4.21E-06,0.005881061
-4.19E-06,-0.001581479
-4.17E-06,-0.009044019
-4.15E-06,0.005881061
-4.13E-06,0.002149791
-4.11E-06,-0.001581479
-4.09E-06,0.005881061
-4.07E-06,-0.001581479
-4.05E-06,0.002149791
-4.03E-06,0.002149791
-4.01E-06,0.002149791
-3.99E-06,-0.016506559
-3.97E-06,0.002149791
-3.95E-06,-0.005312749
-3.93E-06,0.009612331
-3.91E-06,0.005881061
-3.89E-06,-0.005312749
-3.87E-06,-0.001581479
-3.85E-06,0.002149791
-3.83E-06,-0.009044019
-3.81E-06,-0.005312749
-3.79E-06,0.002149791
-3.77E-06,0.002149791
-3.75E-06,-0.009044019
-3.73E-06,0.002149791
-3.71E-06,0.002149791
-3.69E-06,0.005881061
-3.67E-06,-0.005312749
-3.65E-06,-0.016506559
-3.63E-06,-0.001581479
-3.61E-06,-0.005312749
-3.59E-06,0.005881061
-3.57E-06,0.002149791
-3.55E-06,-0.005312749
-3.53E-06,-0.001581479
-3.51E-06,-0.001581479
-3.49E-06,0.002149791
-3.47E-06,-0.001581479
-3.45E-06,-0.012775289
-3.43E-06,-0.001581479
-3.41E-06,-0.012775289
-3.39E-06,-0.001581479
-3.37E-06,0.017074871
-3.35E-06,0.002149791
-3.33E-06,-0.001581479
-3.31E-06,-0.001581479
-3.29E-06,0.005881061
-3.27E-06,0.005881061
-3.25E-06,-0.001581479
-3.23E-06,0.002149791
-3.21E-06,-0.005312749
-3.19E-06,-0.005312749
-3.17E-06,-0.009044019
-3.15E-06,0.002149791
-3.13E-06,-0.005312749
-3.11E-06,-0.009044019
-3.09E-06,-0.005312749
-3.07E-06,-0.009044019
-3.05E-06,-0.001581479
-3.03E-06,-0.001581479
-3.01E-06,-0.001581479
-2.99E-06,-0.005312749
-2.97E-06,-0.009044019
-2.95E-06,0.005881061
-2.93E-06,-0.001581479
-2.91E-06,-0.001581479
-2.89E-06,-0.001581479
-2.87E-06,0.005881061
-2.85E-06,-0.005312749
-2.83E-06,0.002149791
-2.81E-06,0.005881061
-2.79E-06,0.005881061
-2.77E-06,0.002149791
-2.75E-06,0.002149791
-2.73E-06,-0.009044019
-2.71E-06,0.009612331
-2.69E-06,0.005881061
-2.67E-06,0.005881061
-2.65E-06,-0.001581479
-2.63E-06,-0.005312749
-2.61E-06,-0.005312749
-2.59E-06,-0.001581479
-2.57E-06,-0.012775289
-2.55E-06,-0.005312749
-2.53E-06,0.002149791
-2.51E-06,0.005881061
-2.49E-06,0.005881061
-2.47E-06,-0.005312749
-2.45E-06,-0.001581479
-2.43E-06,0.002149791
-2.41E-06,0.005881061
-2.39E-06,0.002149791
-2.37E-06,0.005881061
-2.35E-06,0.002149791
-2.33E-06,0.002149791
-2.31E-06,-0.005312749
-2.29E-06,0.002149791
-2.27E-06,0.002149791
-2.25E-06,0.002149791
-2.23E-06,0.002149791
-2.21E-06,0.002149791
-2.19E-06,0.013343601
-2.17E-06,0.002149791
-2.15E-06,0.002149791
-2.13E-06,0.005881061
-2.11E-06,0.002149791
-2.09E-06,0.013343601
-2.07E-06,0.002149791
-2.05E-06,-0.001581479
-2.03E-06,0.002149791
-2.01E-06,0.005881061
-1.99E-06,0.005881061
-1.97E-06,0.002149791
-1.95E-06,0.002149791
-1.93E-06,-0.001581479
-1.91E-06,0.002149791
-1.89E-06,0.013343601
-1.87E-06,-0.001581479
-1.85E-06,0.002149791
-1.83E-06,-0.001581479
-1.81E-06,-0.012775289
-1.79E-06,-0.001581479
-1.77E-06,-0.005312749
-1.75E-06,0.002149791
-1.73E-06,-0.001581479
-1.71E-06,0.002149791
-1.69E-06,0.002149791
-1.67E-06,0.009612331
-1.65E-06,0.002149791
-1.63E-06,0.005881061
-1.61E-06,-0.001581479
-1.59E-06,-0.005312749
-1.57E-06,-0.001581479
-1.55E-06,-0.005312749
-1.53E-06,-0.001581479
-1.51E-06,0.005881061
-1.49E-06,-0.001581479
-1.47E-06,-0.001581479
-1.45E-06,0.002149791
-1.43E-06,0.002149791
-1.41E-06,0.002149791
-1.39E-06,0.005881061
-1.37E-06,0.009612331
-1.35E-06,0.005881061
-1.33E-06,0.002149791
-1.31E-06,-0.001581479
-1.29E-06,0.002149791
-1.27E-06,-0.001581479
-1.25E-06,0.002149791
-1.23E-06,0.002149791
-1.21E-06,0.002149791
-1.19E-06,-0.001581479
-1.17E-06,-0.001581479
-1.15E-06,0.002149791
-1.13E-06,0.005881061
-1.11E-06,-0.001581479
-1.09E-06,0.002149791
-1.07E-06,-0.001581479
-1.05E-06,-0.001581479
-1.03E-06,-0.012775289
-1.01E-06,0.002149791
-9.94E-07,0.002149791
-9.74E-07,0.002149791
-9.54E-07,0.002149791
-9.34E-07,-0.001581479
-9.14E-07,0.002149791
-8.94E-07,-0.001581479
-8.74E-07,0.002149791
-8.54E-07,0.005881061
-8.34E-07,0.002149791
-8.14E-07,-0.001581479
-7.94E-07,0.009612331
-7.74E-07,0.002149791
-7.54E-07,-0.009044019
-7.34E-07,0.002149791
-7.14E-07,0.002149791
-6.94E-07,0.005881061
-6.74E-07,0.005881061
-6.54E-07,0.002149791
-6.34E-07,-0.001581479
-6.14E-07,-0.009044019
-5.94E-07,-0.005312749
-5.74E-07,0.002149791
-5.54E-07,0.005881061
-5.34E-07,0.013343601
-5.14E-07,0.035731221
-4.94E-07,0.065581382
-4.74E-07,0.091700272
-4.54E-07,0.132744243
-4.34E-07,0.173788214
-4.14E-07,0.203638374
-3.94E-07,0.259607425
-3.74E-07,0.270801235
-3.54E-07,0.319307746
-3.34E-07,0.364082987
-3.14E-07,0.379008067
-2.94E-07,0.423783308
-2.74E-07,0.431245848
-2.54E-07,0.476021089
-2.34E-07,0.52079633
-2.14E-07,0.54691522
-1.94E-07,0.573034111
-1.74E-07,0.606615541
-1.54E-07,0.636465702
-1.34E-07,0.670047132
-1.14E-07,0.699897293
-9.38E-08,0.726016183
-7.38E-08,0.759597614
-5.38E-08,0.789447774
-3.38E-08,0.834223015
-1.38E-08,0.841685555
6.15E-09,0.849148095
2.62E-08,0.897654606
4.62E-08,0.912579686
6.62E-08,0.946161117
8.62E-08,0.972280007
1.06E-07,0.990936358
1.26E-07,1.020786518
1.46E-07,1.039442869
1.66E-07,1.061830489
1.86E-07,1.084218109
2.06E-07,1.09914319
2.26E-07,1.12526208
2.46E-07,1.15511224
2.66E-07,1.166306051
2.86E-07,1.181231131
3.06E-07,1.196156211
3.26E-07,1.218543832
3.46E-07,1.237200182
3.66E-07,1.252125262
3.86E-07,1.263319072
4.06E-07,1.270781612
4.26E-07,1.300631773
4.46E-07,1.323019393
4.66E-07,1.326750663
4.86E-07,1.334213204
5.06E-07,1.345407014
5.26E-07,1.352869554
5.46E-07,1.371525904
5.66E-07,1.386450984
5.86E-07,1.390182254
6.06E-07,1.390182254
6.26E-07,1.405107335
6.46E-07,1.412569875
6.66E-07,1.423763685
6.86E-07,1.423763685
7.06E-07,1.438688765
7.26E-07,1.442420035
7.46E-07,1.434957495
7.66E-07,1.446151305
7.86E-07,1.457345116
8.06E-07,1.449882575
8.26E-07,1.457345116
8.46E-07,1.464807656
8.66E-07,1.468538926
8.86E-07,1.464807656
9.06E-07,1.461076386
9.26E-07,1.453613846
9.46E-07,1.453613846
9.66E-07,1.449882575
9.86E-07,1.453613846
1.01E-06,1.446151305
1.03E-06,1.442420035
1.05E-06,1.434957495
1.07E-06,1.423763685
1.09E-06,1.427494955
1.11E-06,1.416301145
1.13E-06,1.412569875
1.15E-06,1.397644795
1.17E-06,1.408838605
1.19E-06,1.378988444
1.21E-06,1.375257174
1.23E-06,1.375257174
1.25E-06,1.360332094
1.27E-06,1.349138284
1.29E-06,1.334213204
1.31E-06,1.315556853
1.33E-06,1.319288123
1.35E-06,1.300631773
1.37E-06,1.293169233
1.39E-06,1.285706693
1.41E-06,1.267050342
1.43E-06,1.244662722
1.45E-06,1.226006372
1.47E-06,1.214812561
1.49E-06,1.211081291
1.51E-06,1.192424941
1.53E-06,1.177499861
1.55E-06,1.15511224
1.57E-06,1.14018716
1.59E-06,1.12526208
1.61E-06,1.110337
1.63E-06,1.09914319
1.65E-06,1.076755569
1.67E-06,1.058099219
1.69E-06,1.039442869
1.71E-06,1.020786518
1.73E-06,0.998398898
1.75E-06,0.972280007
1.77E-06,0.953623657
1.79E-06,0.942429847
1.81E-06,0.916310956
1.83E-06,0.886460796
1.85E-06,0.860341905
1.87E-06,0.841685555
1.89E-06,0.826760475
1.91E-06,0.811835395
1.93E-06,0.774522694
1.95E-06,0.763328884
1.97E-06,0.755866344
1.99E-06,0.722284913
2.01E-06,0.699897293
2.03E-06,0.666315862
2.05E-06,0.636465702
2.07E-06,0.636465702
2.09E-06,0.602884271
2.11E-06,0.580496651
2.13E-06,0.55810903
2.15E-06,0.53945268
2.17E-06,0.51333379
2.19E-06,0.494677439
2.21E-06,0.476021089
2.23E-06,0.442439658
2.25E-06,0.427514578
2.27E-06,0.397664418
2.29E-06,0.367814257
2.31E-06,0.352889177
2.33E-06,0.334232827
2.35E-06,0.308113936
2.37E-06,0.278263776
2.39E-06,0.263338695
2.41E-06,0.240951075
2.43E-06,0.214832185
2.45E-06,0.192444564
2.47E-06,0.162594404
2.49E-06,0.136475513
2.51E-06,0.114087893
2.53E-06,0.087969002
2.55E-06,0.080506462
2.57E-06,0.046925032
2.59E-06,0.028268681
2.61E-06,0.002149791
2.63E-06,-0.016506559
2.65E-06,-0.05008799
2.67E-06,-0.05755053
2.69E-06,-0.07620688
2.71E-06,-0.094863231
2.73E-06,-0.132175931
2.75E-06,-0.154563552
2.77E-06,-0.169488632
2.79E-06,-0.195607522
2.81E-06,-0.214263873
2.83E-06,-0.225457683
2.85E-06,-0.251576573
2.87E-06,-0.266501654
2.89E-06,-0.277695464
2.91E-06,-0.307545624
2.93E-06,-0.326201975
2.95E-06,-0.341127055
2.97E-06,-0.363514675
2.99E-06,-0.385902296
3.01E-06,-0.408289916
3.03E-06,-0.415752456
3.05E-06,-0.438140077
3.07E-06,-0.438140077
3.09E-06,-0.471721507
3.11E-06,-0.479184047
3.13E-06,-0.501571668
3.15E-06,-0.520228018
3.17E-06,-0.535153098
3.19E-06,-0.550078178
3.21E-06,-0.553809449
3.23E-06,-0.572465799
3.25E-06,-0.594853419
3.27E-06,-0.606047229
3.29E-06,-0.61724104
3.31E-06,-0.63589739
3.33E-06,-0.6470912
3.35E-06,-0.65828501
3.37E-06,-0.66201628
3.39E-06,-0.688135171
3.41E-06,-0.684403901
3.43E-06,-0.703060251
3.45E-06,-0.717985331
3.47E-06,-0.717985331
3.49E-06,-0.740372952
3.51E-06,-0.744104222
3.53E-06,-0.755298032
3.55E-06,-0.759029302
3.57E-06,-0.773954382
3.59E-06,-0.792610733
3.61E-06,-0.788879463
3.63E-06,-0.800073273
3.65E-06,-0.800073273
3.67E-06,-0.800073273
3.69E-06,-0.811267083
3.71E-06,-0.826192163
3.73E-06,-0.818729623
3.75E-06,-0.833654703
3.77E-06,-0.844848513
3.79E-06,-0.837385973
3.81E-06,-0.848579784
3.83E-06,-0.844848513
3.85E-06,-0.848579784
3.87E-06,-0.863504864
3.89E-06,-0.856042324
3.91E-06,-0.852311054
3.93E-06,-0.863504864
3.95E-06,-0.867236134
3.97E-06,-0.856042324
3.99E-06,-0.852311054
4.01E-06,-0.863504864
4.03E-06,-0.859773594
4.05E-06,-0.856042324
4.07E-06,-0.859773594
4.09E-06,-0.867236134
4.11E-06,-0.859773594
4.13E-06,-0.863504864
4.15E-06,-0.852311054
4.17E-06,-0.837385973
4.19E-06,-0.837385973
4.21E-06,-0.848579784
4.23E-06,-0.844848513
4.25E-06,-0.833654703
4.27E-06,-0.826192163
4.29E-06,-0.833654703
4.31E-06,-0.826192163
4.33E-06,-0.826192163
4.35E-06,-0.818729623
4.37E-06,-0.811267083
4.39E-06,-0.807535813
4.41E-06,-0.796342003
4.43E-06,-0.792610733
4.45E-06,-0.785148192
4.47E-06,-0.777685652
4.49E-06,-0.770223112
4.51E-06,-0.762760572
4.53E-06,-0.755298032
4.55E-06,-0.747835492
4.57E-06,-0.740372952
4.59E-06,-0.721716601
4.61E-06,-0.714254061
4.63E-06,-0.706791521
4.65E-06,-0.710522791
4.67E-06,-0.699328981
4.69E-06,-0.680672631
4.71E-06,-0.66574755
4.73E-06,-0.65455374
4.75E-06,-0.63962866
4.77E-06,-0.63216612
4.79E-06,-0.63589739
4.81E-06,-0.62470358
4.83E-06,-0.606047229
4.85E-06,-0.606047229
4.87E-06,-0.583659609
4.89E-06,-0.572465799
4.91E-06,-0.565003259
4.93E-06,-0.542615638
4.95E-06,-0.546346908
4.97E-06,-0.531421828
4.99E-06,-0.512765478
5.01E-06,-0.501571668
5.03E-06,-0.479184047
5.05E-06,-0.479184047
5.07E-06,-0.467990237
5.09E-06,-0.434408806
5.11E-06,-0.426946266
5.13E-06,-0.408289916
5.15E-06,-0.393364836
5.17E-06,-0.389633566
5.19E-06,-0.374708485
5.21E-06,-0.359783405
5.23E-06,-0.352320865
5.25E-06,-0.337395785
5.27E-06,-0.329933245
5.29E-06,-0.315008164
5.31E-06,-0.307545624
5.33E-06,-0.281426734
5.35E-06,-0.273964194
5.37E-06,-0.251576573
5.39E-06,-0.229188953
5.41E-06,-0.229188953
5.43E-06,-0.214263873
5.45E-06,-0.195607522
5.47E-06,-0.188144982
5.49E-06,-0.176951172
5.51E-06,-0.150832282
5.53E-06,-0.135907201
5.55E-06,-0.143369742
5.57E-06,-0.117250851
5.59E-06,-0.098594501
5.61E-06,-0.087400691
5.63E-06,-0.087400691
5.65E-06,-0.05755053
5.67E-06,-0.05008799
5.69E-06,-0.02770037
5.71E-06,-0.012775289
5.73E-06,-0.012775289
5.75E-06,0.013343601
5.77E-06,0.024537411
5.79E-06,0.039462492
5.81E-06,0.050656302
5.83E-06,0.058118842
5.85E-06,0.061850112
5.87E-06,0.073043922
5.89E-06,0.099162813
5.91E-06,0.102894083
5.93E-06,0.117819163
5.95E-06,0.136475513
5.97E-06,0.143938053
5.99E-06,0.147669323
6.01E-06,0.170056944
6.03E-06,0.177519484
6.05E-06,0.192444564
6.07E-06,0.211100914
6.09E-06,0.207369644
6.11E-06,0.233488535
6.13E-06,0.240951075
6.15E-06,0.248413615
6.17E-06,0.267069965
6.19E-06,0.281995046
6.21E-06,0.274532506
6.23E-06,0.289457586
6.25E-06,0.296920126
6.27E-06,0.308113936
6.29E-06,0.319307746
6.31E-06,0.319307746
6.33E-06,0.330501556
6.35E-06,0.334232827
6.37E-06,0.341695367
6.39E-06,0.349157907
6.41E-06,0.382739337
6.43E-06,0.360351717
6.45E-06,0.379008067
6.47E-06,0.397664418
6.49E-06,0.379008067
6.51E-06,0.408858228
6.53E-06,0.401395688
6.55E-06,0.420052038
6.57E-06,0.420052038
6.59E-06,0.427514578
6.61E-06,0.438708388
6.63E-06,0.427514578
6.65E-06,0.461096009
6.67E-06,0.449902199
6.69E-06,0.457364739
6.71E-06,0.468558549
6.73E-06,0.472289819
6.75E-06,0.479752359
6.77E-06,0.483483629
6.79E-06,0.483483629
6.81E-06,0.487214899
6.83E-06,0.490946169
6.85E-06,0.498408709
6.87E-06,0.502139979
6.89E-06,0.505871249
6.91E-06,0.505871249
6.93E-06,0.502139979
6.95E-06,0.51333379
6.97E-06,0.51706506
6.99E-06,0.51333379
7.01E-06,0.51706506
7.03E-06,0.51706506
7.05E-06,0.502139979
7.07E-06,0.52825887
7.09E-06,0.51333379
7.11E-06,0.51706506
7.13E-06,0.51706506
7.15E-06,0.5245276
7.17E-06,0.51706506
7.19E-06,0.51706506
7.21E-06,0.5245276
7.23E-06,0.51706506
7.25E-06,0.52079633
7.27E-06,0.50960252
7.29E-06,0.52079633
7.31E-06,0.51333379
7.33E-06,0.505871249
7.35E-06,0.51333379
7.37E-06,0.505871249
7.39E-06,0.498408709
7.41E-06,0.505871249
7.43E-06,0.494677439
7.45E-06,0.498408709
7.47E-06,0.483483629
7.49E-06,0.490946169
7.51E-06,0.483483629
7.53E-06,0.487214899
7.55E-06,0.479752359
7.57E-06,0.476021089
7.59E-06,0.464827279
7.61E-06,0.468558549
7.63E-06,0.464827279
7.65E-06,0.464827279
7.67E-06,0.453633469
7.69E-06,0.446170928
7.71E-06,0.442439658
7.73E-06,0.434977118
7.75E-06,0.431245848
7.77E-06,0.423783308
7.79E-06,0.412589498
7.81E-06,0.408858228
7.83E-06,0.401395688
7.85E-06,0.405126958
7.87E-06,0.405126958
7.89E-06,0.386470607
7.91E-06,0.397664418
7.93E-06,0.371545527
7.95E-06,0.364082987
7.97E-06,0.356620447
7.99E-06,0.356620447
8.01E-06,0.352889177
8.03E-06,0.345426637
8.05E-06,0.334232827
8.07E-06,0.330501556
8.09E-06,0.315576476
8.11E-06,0.304382666
8.13E-06,0.308113936
8.15E-06,0.311845206
8.17E-06,0.300651396
8.19E-06,0.296920126
8.21E-06,0.285726316
8.23E-06,0.270801235
8.25E-06,0.270801235
8.27E-06,0.255876155
8.29E-06,0.222294725
8.31E-06,0.226025995
8.33E-06,0.229757265
8.35E-06,0.222294725
8.37E-06,0.214832185
8.39E-06,0.211100914
8.41E-06,0.196175834
8.43E-06,0.177519484
8.45E-06,0.170056944
8.47E-06,0.170056944
8.49E-06,0.155131864
8.51E-06,0.147669323
8.53E-06,0.143938053
8.55E-06,0.132744243
8.57E-06,0.125281703
8.59E-06,0.117819163
8.61E-06,0.117819163
8.63E-06,0.106625353
8.65E-06,0.095431542
8.67E-06,0.084237732
8.69E-06,0.084237732
8.71E-06,0.073043922
8.73E-06,0.061850112
8.75E-06,0.061850112
8.77E-06,0.046925032
8.79E-06,0.035731221
8.81E-06,0.024537411
8.83E-06,0.020806141
8.85E-06,0.017074871
8.87E-06,0.002149791
8.89E-06,0.009612331
8.91E-06,-0.005312749
8.93E-06,-0.020237829
8.95E-06,-0.03516291
8.97E-06,-0.03143164
8.99E-06,-0.02770037
9.01E-06,-0.03889418
9.03E-06,-0.0612818
9.05E-06,-0.05381926
9.07E-06,-0.07620688
9.09E-06,-0.07993815
9.11E-06,-0.07620688
9.13E-06,-0.094863231
9.15E-06,-0.106057041
9.17E-06,-0.098594501
9.19E-06,-0.109788311
9.21E-06,-0.117250851
9.23E-06,-0.102325771
9.25E-06,-0.135907201
9.27E-06,-0.143369742
9.29E-06,-0.147101012
9.31E-06,-0.139638471
9.33E-06,-0.162026092
9.35E-06,-0.165757362
9.37E-06,-0.169488632
9.39E-06,-0.169488632
9.41E-06,-0.180682442
9.43E-06,-0.184413712
9.45E-06,-0.173219902
9.47E-06,-0.203070063
9.49E-06,-0.188144982
9.51E-06,-0.199338793
9.53E-06,-0.191876252
9.55E-06,-0.214263873
9.57E-06,-0.214263873
9.59E-06,-0.225457683
9.61E-06,-0.229188953
9.63E-06,-0.225457683
9.65E-06,-0.236651493
9.67E-06,-0.236651493
9.69E-06,-0.244114033
9.71E-06,-0.244114033
9.73E-06,-0.251576573
9.75E-06,-0.259039114
9.77E-06,-0.255307843
9.79E-06,-0.266501654
9.81E-06,-0.259039114
9.83E-06,-0.273964194
9.85E-06,-0.266501654
9.87E-06,-0.273964194
9.89E-06,-0.262770384
9.91E-06,-0.273964194
9.93E-06,-0.277695464
9.95E-06,-0.277695464
9.97E-06,-0.281426734
9.99E-06,-0.285158004
1.00E-05,-0.277695464
1.00E-05,-0.296351814
1.00E-05,-0.296351814
1.01E-05,-0.292620544
1.01E-05,-0.292620544
1.01E-05,-0.281426734
1.01E-05,-0.288889274
1.01E-05,-0.288889274
1.02E-05,-0.288889274
1.02E-05,-0.281426734
1.02E-05,-0.285158004
1.02E-05,-0.285158004
1.02E-05,-0.300083084
1.03E-05,-0.300083084
1.03E-05,-0.296351814
1.03E-05,-0.292620544
1.03E-05,-0.296351814
1.03E-05,-0.296351814
1.04E-05,-0.300083084
1.04E-05,-0.300083084
1.04E-05,-0.288889274
1.04E-05,-0.292620544
1.04E-05,-0.296351814
1.05E-05,-0.292620544
1.05E-05,-0.281426734
1.05E-05,-0.292620544
1.05E-05,-0.285158004
1.05E-05,-0.281426734
1.06E-05,-0.288889274
1.06E-05,-0.285158004
1.06E-05,-0.266501654
1.06E-05,-0.270232924
1.06E-05,-0.273964194
1.07E-05,-0.273964194
1.07E-05,-0.273964194
1.07E-05,-0.262770384
1.07E-05,-0.262770384
1.07E-05,-0.262770384
1.08E-05,-0.255307843
1.08E-05,-0.244114033
1.08E-05,-0.255307843
1.08E-05,-0.259039114
1.08E-05,-0.251576573
1.09E-05,-0.255307843
1.09E-05,-0.232920223
1.09E-05,-0.255307843
1.09E-05,-0.247845303
1.09E-05,-0.236651493
1.10E-05,-0.221726413
1.10E-05,-0.229188953
1.10E-05,-0.217995143
1.10E-05,-0.210532603
1.10E-05,-0.210532603
1.11E-05,-0.217995143
1.11E-05,-0.210532603
1.11E-05,-0.203070063
1.11E-05,-0.180682442
1.11E-05,-0.199338793
1.12E-05,-0.195607522
1.12E-05,-0.184413712
1.12E-05,-0.188144982
1.12E-05,-0.180682442
1.12E-05,-0.173219902
1.13E-05,-0.165757362
1.13E-05,-0.165757362
1.13E-05,-0.154563552
1.13E-05,-0.158294822
1.13E-05,-0.158294822
1.14E-05,-0.154563552
1.14E-05,-0.154563552
1.14E-05,-0.139638471
1.14E-05,-0.120982121
1.14E-05,-0.120982121
1.15E-05,-0.120982121
1.15E-05,-0.124713391
1.15E-05,-0.117250851
1.15E-05,-0.102325771
1.15E-05,-0.091131961
1.16E-05,-0.098594501
1.16E-05,-0.094863231
1.16E-05,-0.094863231
1.16E-05,-0.07993815
1.16E-05,-0.087400691
1.17E-05,-0.083669421
1.17E-05,-0.07247561
1.17E-05,-0.06501307
1.17E-05,-0.06501307
1.17E-05,-0.0612818
1.18E-05,-0.05381926
1.18E-05,-0.05008799
1.18E-05,-0.03516291
1.18E-05,-0.04262545
1.18E-05,-0.03143164
1.19E-05,-0.02770037
1.19E-05,-0.020237829
1.19E-05,-0.016506559
1.19E-05,-0.012775289
1.19E-05,-0.005312749
1.20E-05,-0.009044019
1.20E-05,-0.001581479
1.20E-05,0.013343601
1.20E-05,0.005881061
1.20E-05,0.017074871
1.21E-05,0.017074871
1.21E-05,0.024537411
1.21E-05,0.028268681
1.21E-05,0.035731221
1.21E-05,0.028268681
1.22E-05,0.039462492
1.22E-05,0.043193762
1.22E-05,0.054387572
1.22E-05,0.039462492
1.22E-05,0.054387572
1.23E-05,0.065581382
1.23E-05,0.058118842
1.23E-05,0.065581382
1.23E-05,0.065581382
1.23E-05,0.080506462
1.24E-05,0.084237732
1.24E-05,0.073043922
1.24E-05,0.084237732
1.24E-05,0.099162813
1.24E-05,0.099162813
1.25E-05,0.099162813
1.25E-05,0.099162813
1.25E-05,0.095431542
1.25E-05,0.121550433
1.25E-05,0.102894083
1.26E-05,0.125281703
1.26E-05,0.121550433
1.26E-05,0.132744243
1.26E-05,0.125281703
1.26E-05,0.136475513
1.27E-05,0.147669323
1.27E-05,0.151400593
1.27E-05,0.132744243
1.27E-05,0.140206783
1.27E-05,0.132744243
1.28E-05,0.147669323
1.28E-05,0.155131864
1.28E-05,0.136475513
1.28E-05,0.155131864
1.28E-05,0.155131864
1.29E-05,0.151400593
1.29E-05,0.170056944
1.29E-05,0.147669323
1.29E-05,0.155131864
1.29E-05,0.162594404
1.30E-05,0.173788214
1.30E-05,0.173788214
1.30E-05,0.158863134
1.30E-05,0.158863134
1.30E-05,0.177519484
1.31E-05,0.173788214
1.31E-05,0.181250754
1.31E-05,0.181250754
1.31E-05,0.170056944
1.31E-05,0.181250754
1.32E-05,0.184982024
1.32E-05,0.181250754
1.32E-05,0.188713294
1.32E-05,0.181250754
1.32E-05,0.177519484
1.33E-05,0.184982024
1.33E-05,0.192444564
1.33E-05,0.192444564
1.33E-05,0.184982024
1.33E-05,0.199907104
1.34E-05,0.173788214
1.34E-05,0.181250754
1.34E-05,0.196175834
1.34E-05,0.181250754
1.34E-05,0.188713294
1.35E-05,0.177519484
1.35E-05,0.192444564
1.35E-05,0.199907104
1.35E-05,0.188713294
1.35E-05,0.177519484
1.36E-05,0.188713294
1.36E-05,0.188713294
1.36E-05,0.184982024
1.36E-05,0.188713294
1.36E-05,0.188713294
1.37E-05,0.181250754
1.37E-05,0.173788214
1.37E-05,0.181250754
1.37E-05,0.177519484
1.37E-05,0.173788214
1.38E-05,0.177519484
1.38E-05,0.173788214
1.38E-05,0.188713294
1.38E-05,0.170056944
1.38E-05,0.166325674
1.39E-05,0.166325674
1.39E-05,0.166325674
1.39E-05,0.170056944
1.39E-05,0.170056944
1.39E-05,0.155131864
1.40E-05,0.155131864
1.40E-05,0.151400593
1.40E-05,0.158863134
1.40E-05,0.155131864
1.40E-05,0.147669323
1.41E-05,0.147669323
1.41E-05,0.151400593
1.41E-05,0.136475513
1.41E-05,0.129012973
1.41E-05,0.143938053
1.42E-05,0.125281703
1.42E-05,0.136475513
1.42E-05,0.129012973
1.42E-05,0.114087893
1.42E-05,0.129012973
1.43E-05,0.129012973
1.43E-05,0.125281703
1.43E-05,0.117819163
1.43E-05,0.110356623
1.43E-05,0.106625353
1.44E-05,0.102894083
1.44E-05,0.110356623
1.44E-05,0.091700272
1.44E-05,0.106625353
1.44E-05,0.099162813
1.45E-05,0.095431542
1.45E-05,0.095431542
1.45E-05,0.091700272
1.45E-05,0.095431542
1.45E-05,0.091700272
1.46E-05,0.080506462
1.46E-05,0.076775192
1.46E-05,0.073043922
1.46E-05,0.069312652
1.46E-05,0.069312652
1.47E-05,0.073043922
1.47E-05,0.069312652
1.47E-05,0.065581382
1.47E-05,0.073043922
1.47E-05,0.069312652
1.48E-05,0.065581382
1.48E-05,0.061850112
1.48E-05,0.065581382
1.48E-05,0.043193762
1.48E-05,0.043193762
1.49E-05,0.043193762
1.49E-05,0.046925032
1.49E-05,0.035731221
1.49E-05,0.035731221
1.49E-05,0.043193762
1.50E-05,0.035731221
1.50E-05,0.024537411
1.50E-05,0.020806141
1.50E-05,0.024537411
1.50E-05,0.031999951
1.51E-05,0.017074871
1.51E-05,0.009612331
1.51E-05,0.013343601
1.51E-05,0.009612331
1.51E-05,0.002149791
1.52E-05,0.002149791
1.52E-05,0.009612331
1.52E-05,-0.001581479
1.52E-05,-0.009044019
1.52E-05,-0.005312749
1.53E-05,-0.005312749
1.53E-05,-0.005312749
1.53E-05,-0.009044019
1.53E-05,-0.02770037
1.53E-05,-0.020237829
1.54E-05,-0.020237829
1.54E-05,-0.02770037
1.54E-05,-0.03143164
1.54E-05,-0.03516291
1.54E-05,-0.020237829
1.55E-05,-0.04635672
1.55E-05,-0.02770037
1.55E-05,-0.04635672
1.55E-05,-0.03889418
1.55E-05,-0.05008799
1.56E-05,-0.05008799
1.56E-05,-0.05008799
1.56E-05,-0.05008799
1.56E-05,-0.06874434
1.56E-05,-0.06874434
1.57E-05,-0.05381926
1.57E-05,-0.06874434
1.57E-05,-0.07620688
1.57E-05,-0.06874434
1.57E-05,-0.0612818
1.58E-05,-0.06874434
1.58E-05,-0.06874434
1.58E-05,-0.07247561
1.58E-05,-0.06874434
1.58E-05,-0.07247561
1.59E-05,-0.07993815
1.59E-05,-0.07247561
1.59E-05,-0.094863231
1.59E-05,-0.083669421
1.59E-05,-0.07993815
1.60E-05,-0.07993815
1.60E-05,-0.07620688
1.60E-05,-0.087400691
1.60E-05,-0.091131961
1.60E-05,-0.091131961
1.61E-05,-0.087400691
1.61E-05,-0.098594501
1.61E-05,-0.098594501
1.61E-05,-0.094863231
1.61E-05,-0.094863231
1.62E-05,-0.087400691
1.62E-05,-0.098594501
1.62E-05,-0.098594501
1.62E-05,-0.106057041
1.62E-05,-0.109788311
1.63E-05,-0.098594501
1.63E-05,-0.102325771
1.63E-05,-0.106057041
1.63E-05,-0.098594501
1.63E-05,-0.098594501
1.64E-05,-0.102325771
1.64E-05,-0.102325771
1.64E-05,-0.106057041
1.64E-05,-0.094863231
1.64E-05,-0.102325771
1.65E-05,-0.106057041
1.65E-05,-0.109788311
1.65E-05,-0.106057041
1.65E-05,-0.109788311
1.65E-05,-0.117250851
1.66E-05,-0.113519581
1.66E-05,-0.102325771
1.66E-05,-0.109788311
1.66E-05,-0.106057041
1.66E-05,-0.102325771
1.67E-05,-0.106057041
1.67E-05,-0.102325771
1.67E-05,-0.106057041
1.67E-05,-0.098594501
1.67E-05,-0.113519581
1.68E-05,-0.094863231
1.68E-05,-0.094863231
1.68E-05,-0.117250851
1.68E-05,-0.094863231
1.68E-05,-0.094863231
1.69E-05,-0.106057041
1.69E-05,-0.091131961
1.69E-05,-0.094863231
1.69E-05,-0.098594501
1.69E-05,-0.102325771
1.70E-05,-0.087400691
1.70E-05,-0.091131961
1.70E-05,-0.087400691
1.70E-05,-0.087400691
1.70E-05,-0.087400691
1.71E-05,-0.102325771
1.71E-05,-0.087400691
1.71E-05,-0.098594501
1.71E-05,-0.087400691
1.71E-05,-0.087400691
1.72E-05,-0.091131961
1.72E-05,-0.083669421
1.72E-05,-0.091131961
1.72E-05,-0.07993815
1.72E-05,-0.083669421
1.73E-05,-0.083669421
1.73E-05,-0.087400691
1.73E-05,-0.087400691
1.73E-05,-0.083669421
1.73E-05,-0.07247561
1.74E-05,-0.07620688
1.74E-05,-0.07247561
1.74E-05,-0.07993815
1.74E-05,-0.06874434
1.74E-05,-0.06874434
1.75E-05,-0.083669421
1.75E-05,-0.07993815
1.75E-05,-0.06874434
1.75E-05,-0.0612818
1.75E-05,-0.06501307
1.76E-05,-0.0612818
1.76E-05,-0.0612818
1.76E-05,-0.05381926
1.76E-05,-0.05008799
1.76E-05,-0.0612818
1.77E-05,-0.06501307
1.77E-05,-0.04635672
1.77E-05,-0.04635672
1.77E-05,-0.03516291
1.77E-05,-0.04262545
1.78E-05,-0.04262545
1.78E-05,-0.05008799
1.78E-05,-0.03516291
1.78E-05,-0.04635672
1.78E-05,-0.03516291
1.79E-05,-0.04262545
1.79E-05,-0.03143164
1.79E-05,-0.0239691
1.79E-05,-0.016506559
1.79E-05,-0.0239691
1.80E-05,-0.020237829
1.80E-05,-0.020237829
1.80E-05,-0.0239691
1.80E-05,-0.012775289
1.80E-05,-0.016506559
1.81E-05,-0.012775289
1.81E-05,-0.020237829
1.81E-05,-0.020237829
1.81E-05,-0.009044019
1.81E-05,-0.001581479
1.82E-05,-0.001581479
1.82E-05,0.005881061
1.82E-05,-0.009044019
1.82E-05,-0.005312749
1.82E-05,-0.001581479
1.83E-05,-0.001581479
1.83E-05,-0.005312749
1.83E-05,0.009612331
1.83E-05,0.009612331
1.83E-05,0.009612331
1.84E-05,0.013343601
1.84E-05,0.002149791
1.84E-05,0.005881061
1.84E-05,0.020806141
1.84E-05,0.005881061
1.85E-05,0.020806141
1.85E-05,0.028268681
1.85E-05,0.024537411
1.85E-05,0.013343601
1.85E-05,0.017074871
1.86E-05,0.020806141
1.86E-05,0.028268681
1.86E-05,0.024537411
1.86E-05,0.024537411
1.86E-05,0.031999951
1.87E-05,0.024537411
1.87E-05,0.031999951
1.87E-05,0.024537411
1.87E-05,0.043193762
1.87E-05,0.028268681
1.88E-05,0.039462492
1.88E-05,0.031999951
1.88E-05,0.046925032
1.88E-05,0.043193762
1.88E-05,0.046925032
1.89E-05,0.039462492
1.89E-05,0.054387572
1.89E-05,0.054387572
1.89E-05,0.054387572
1.89E-05,0.050656302
1.90E-05,0.050656302
1.90E-05,0.046925032
1.90E-05,0.050656302
1.90E-05,0.065581382
1.90E-05,0.050656302
1.91E-05,0.061850112
1.91E-05,0.058118842
1.91E-05,0.058118842
1.91E-05,0.050656302
1.91E-05,0.069312652
1.92E-05,0.054387572
1.92E-05,0.046925032
1.92E-05,0.050656302
1.92E-05,0.061850112
1.92E-05,0.069312652
1.93E-05,0.058118842
1.93E-05,0.050656302
1.93E-05,0.061850112
1.93E-05,0.058118842
1.93E-05,0.076775192
1.94E-05,0.076775192
1.94E-05,0.065581382
1.94E-05,0.069312652
1.94E-05,0.054387572
1.94E-05,0.065581382
1.95E-05,0.054387572
1.95E-05,0.058118842
1.95E-05,0.065581382
1.95E-05,0.069312652
1.95E-05,0.058118842
1.96E-05,0.069312652
1.96E-05,0.065581382
1.96E-05,0.069312652
1.96E-05,0.065581382
1.96E-05,0.069312652
1.97E-05,0.061850112
1.97E-05,0.058118842
1.97E-05,0.065581382
1.97E-05,0.061850112
1.97E-05,0.061850112
1.98E-05,0.054387572
1.98E-05,0.069312652
1.98E-05,0.061850112
1.98E-05,0.069312652
1.98E-05,0.065581382
1.99E-05,0.065581382
1.99E-05,0.073043922
1.99E-05,0.076775192
1.99E-05,0.065581382
1.99E-05,0.061850112
2.00E-05,0.076775192
2.00E-05,0.065581382
2.00E-05,0.058118842
2.00E-05,0.050656302
2.00E-05,0.069312652
2.01E-05,0.065581382
2.01E-05,0.069312652
2.01E-05,0.061850112
2.01E-05,0.050656302
2.01E-05,0.058118842
2.02E-05,0.054387572
2.02E-05,0.061850112
2.02E-05,0.046925032
2.02E-05,0.043193762
2.02E-05,0.069312652
2.03E-05,0.061850112
2.03E-05,0.054387572
2.03E-05,0.050656302
2.03E-05,0.054387572
2.03E-05,0.046925032
2.04E-05,0.054387572
2.04E-05,0.058118842
2.04E-05,0.035731221
2.04E-05,0.050656302
2.04E-05,0.046925032
2.05E-05,0.054387572
2.05E-05,0.046925032
2.05E-05,0.043193762
2.05E-05,0.050656302
2.05E-05,0.046925032
2.06E-05,0.050656302
2.06E-05,0.061850112
2.06E-05,0.050656302
2.06E-05,0.039462492
2.06E-05,0.046925032
2.07E-05,0.035731221
2.07E-05,0.050656302
2.07E-05,0.043193762
2.07E-05,0.043193762
2.07E-05,0.046925032
2.08E-05,0.043193762
2.08E-05,0.017074871
2.08E-05,0.028268681
2.08E-05,0.035731221
2.08E-05,0.031999951
2.09E-05,0.031999951
2.09E-05,0.020806141
2.09E-05,0.028268681
2.09E-05,0.035731221
2.09E-05,0.035731221
2.10E-05,0.028268681
2.10E-05,0.013343601
2.10E-05,0.020806141
2.10E-05,0.028268681
2.10E-05,0.020806141
2.11E-05,0.017074871
2.11E-05,0.017074871
2.11E-05,0.009612331
2.11E-05,0.005881061
2.11E-05,0.020806141
2.12E-05,0.013343601
2.12E-05,0.017074871
2.12E-05,0.009612331
2.12E-05,0.013343601
2.12E-05,0.002149791
2.13E-05,0.005881061
2.13E-05,0.013343601
2.13E-05,0.005881061
2.13E-05,0.013343601
2.13E-05,0.009612331
2.14E-05,0.009612331
2.14E-05,-0.001581479
2.14E-05,-0.001581479
2.14E-05,0.009612331
2.14E-05,0.002149791
2.15E-05,0.005881061
2.15E-05,0.009612331
2.15E-05,0.005881061
2.15E-05,0.009612331
2.15E-05,0.002149791
2.16E-05,0.005881061
2.16E-05,-0.001581479
2.16E-05,0.002149791
2.16E-05,-0.016506559
2.16E-05,0.005881061
2.17E-05,-0.016506559
2.17E-05,-0.009044019
2.17E-05,-0.009044019
2.17E-05,-0.005312749
2.17E-05,-0.005312749
2.18E-05,-0.016506559
2.18E-05,-0.009044019
2.18E-05,-0.020237829
2.18E-05,-0.012775289
2.18E-05,-0.016506559
2.19E-05,-0.009044019
2.19E-05,-0.020237829
2.19E-05,-0.012775289
2.19E-05,-0.0239691
2.19E-05,-0.020237829
2.20E-05,-0.0239691
2.20E-05,-0.02770037
2.20E-05,-0.005312749
2.20E-05,-0.016506559
2.20E-05,-0.020237829
2.21E-05,-0.012775289
2.21E-05,-0.0239691
2.21E-05,-0.020237829
2.21E-05,-0.020237829
2.21E-05,-0.016506559
2.22E-05,-0.009044019
2.22E-05,-0.012775289
2.22E-05,-0.020237829
2.22E-05,-0.0239691
2.22E-05,-0.0239691
2.23E-05,-0.0239691
2.23E-05,-0.02770037
2.23E-05,-0.03516291
2.23E-05,-0.02770037
2.23E-05,-0.02770037
2.24E-05,-0.03143164
2.24E-05,-0.016506559
2.24E-05,-0.0239691
2.24E-05,-0.03516291
2.24E-05,-0.03143164
2.25E-05,-0.03889418
2.25E-05,-0.03143164
2.25E-05,-0.020237829
2.25E-05,-0.0239691
2.25E-05,-0.02770037
2.26E-05,-0.02770037
2.26E-05,-0.02770037
2.26E-05,-0.016506559
2.26E-05,-0.03516291
2.26E-05,-0.03143164
2.27E-05,-0.03516291
2.27E-05,-0.03889418
2.27E-05,-0.03516291
2.27E-05,-0.03143164
2.27E-05,-0.03143164
2.28E-05,-0.03143164
2.28E-05,-0.04262545
2.28E-05,-0.03889418
2.28E-05,-0.03889418
2.28E-05,-0.04262545
2.29E-05,-0.0239691
2.29E-05,-0.05008799
2.29E-05,-0.04262545
2.29E-05,-0.02770037
2.29E-05,-0.04262545
2.30E-05,-0.02770037
2.30E-05,-0.03889418
2.30E-05,-0.03889418
2.30E-05,-0.03889418
2.30E-05,-0.04635672
2.31E-05,-0.02770037
2.31E-05,-0.0239691
2.31E-05,-0.03516291
2.31E-05,-0.03889418
2.31E-05,-0.03143164
2.32E-05,-0.02770037
2.32E-05,-0.02770037
2.32E-05,-0.02770037
2.32E-05,-0.04635672
2.32E-05,-0.02770037
2.33E-05,-0.03143164
2.33E-05,-0.03143164
2.33E-05,-0.020237829
2.33E-05,-0.02770037
2.33E-05,-0.03889418
2.34E-05,-0.0239691
2.34E-05,-0.02770037
2.34E-05,-0.0239691
2.34E-05,-0.03516291
2.34E-05,-0.03143164
2.35E-05,-0.03516291
2.35E-05,-0.03889418
2.35E-05,-0.02770037
2.35E-05,-0.0239691
2.35E-05,-0.016506559
2.36E-05,-0.03143164
2.36E-05,-0.0239691
2.36E-05,-0.0239691
2.36E-05,-0.03143164
2.36E-05,-0.016506559
2.37E-05,-0.012775289
2.37E-05,-0.012775289
2.37E-05,-0.0239691
2.37E-05,-0.0239691
2.37E-05,-0.020237829
2.38E-05,-0.0239691
2.38E-05,-0.020237829
2.38E-05,-0.02770037
2.38E-05,-0.0239691
2.38E-05,-0.02770037
2.39E-05,-0.0239691
2.39E-05,-0.03143164
2.39E-05,-0.03143164
2.39E-05,-0.0239691
2.39E-05,-0.020237829
2.40E-05,-0.016506559
2.40E-05,-0.016506559
2.40E-05,-0.012775289
2.40E-05,-0.016506559
2.40E-05,-0.012775289
2.41E-05,-0.016506559
2.41E-05,-0.012775289
2.41E-05,-0.012775289
2.41E-05,-0.001581479
2.41E-05,-0.020237829
2.42E-05,-0.020237829
2.42E-05,-0.005312749
2.42E-05,-0.012775289
2.42E-05,-0.001581479
2.42E-05,-0.012775289
2.43E-05,-0.012775289
2.43E-05,-0.001581479
2.43E-05,-0.005312749
2.43E-05,-0.005312749
2.43E-05,-0.005312749
2.44E-05,0.002149791
2.44E-05,0.002149791
2.44E-05,-0.005312749
2.44E-05,-0.009044019
2.44E-05,-0.009044019
2.45E-05,-0.009044019
2.45E-05,-0.005312749
2.45E-05,-0.001581479
2.45E-05,-0.001581479
2.45E-05,0.002149791
2.46E-05,0.002149791
2.46E-05,-0.005312749
2.46E-05,0.005881061
2.46E-05,-0.009044019
2.46E-05,-0.001581479
2.47E-05,0.002149791
2.47E-05,0.005881061
2.47E-05,0.005881061
2.47E-05,0.005881061
2.47E-05,0.005881061
2.48E-05,0.002149791
2.48E-05,0.017074871
2.48E-05,0.013343601
2.48E-05,0.005881061
2.48E-05,0.005881061
2.49E-05,0.009612331
2.49E-05,0.013343601
2.49E-05,0.009612331
2.49E-05,0.002149791
2.49E-05,0.009612331
2.50E-05,0.017074871
2.50E-05,0.024537411
2.50E-05,0.013343601
2.50E-05,0.017074871
2.50E-05,0.009612331
2.51E-05,0.017074871
2.51E-05,0.020806141
2.51E-05,0.020806141
2.51E-05,0.009612331
2.51E-05,0.024537411
2.52E-05,0.024537411
2.52E-05,0.017074871
2.52E-05,0.028268681
2.52E-05,0.020806141
2.52E-05,0.020806141
2.53E-05,0.017074871
2.53E-05,0.017074871
2.53E-05,0.035731221
2.53E-05,0.035731221
2.53E-05,0.020806141
2.54E-05,0.031999951
2.54E-05,0.020806141
2.54E-05,0.028268681
2.54E-05,0.024537411
2.54E-05,0.013343601
2.55E-05,0.024537411
2.55E-05,0.009612331
2.55E-05,0.024537411
2.55E-05,0.017074871
2.55E-05,0.020806141
2.56E-05,0.031999951
2.56E-05,0.020806141
2.56E-05,0.028268681
2.56E-05,0.020806141
2.56E-05,0.017074871
2.57E-05,0.020806141
2.57E-05,0.031999951
2.57E-05,0.017074871
2.57E-05,0.028268681
2.57E-05,0.013343601
2.58E-05,0.024537411
2.58E-05,0.020806141
2.58E-05,0.031999951
2.58E-05,0.017074871
2.58E-05,0.028268681
2.59E-05,0.031999951
2.59E-05,0.017074871
2.59E-05,0.017074871
2.59E-05,0.009612331
2.59E-05,0.013343601
2.60E-05,0.024537411
2.60E-05,0.024537411
2.60E-05,0.020806141
2.60E-05,0.024537411
2.60E-05,0.020806141
2.61E-05,0.020806141
2.61E-05,0.020806141
2.61E-05,0.017074871
2.61E-05,0.031999951
2.61E-05,0.020806141
2.62E-05,0.031999951
2.62E-05,0.020806141
2.62E-05,0.028268681
2.62E-05,0.031999951
2.62E-05,0.024537411
2.63E-05,0.028268681
2.63E-05,0.020806141
2.63E-05,0.031999951
2.63E-05,0.009612331
2.63E-05,0.028268681
2.64E-05,0.013343601
2.64E-05,0.020806141
2.64E-05,0.013343601
2.64E-05,0.020806141
2.64E-05,0.024537411
2.65E-05,0.013343601
2.65E-05,0.013343601
2.65E-05,0.017074871
2.65E-05,0.024537411
2.65E-05,0.020806141
2.66E-05,0.024537411
2.66E-05,0.013343601
2.66E-05,0.009612331
2.66E-05,0.013343601
2.66E-05,0.024537411
2.67E-05,0.028268681
2.67E-05,0.020806141
2.67E-05,0.024537411
2.67E-05,0.017074871
2.67E-05,0.035731221
2.68E-05,0.017074871
2.68E-05,0.013343601
2.68E-05,0.009612331
2.68E-05,0.017074871
2.68E-05,0.013343601
2.69E-05,0.017074871
2.69E-05,0.017074871
2.69E-05,0.020806141
2.69E-05,0.013343601
2.69E-05,0.020806141
2.70E-05,0.013343601
2.70E-05,0.017074871
2.70E-05,0.020806141
2.70E-05,0.020806141
2.70E-05,0.013343601
2.71E-05,0.013343601
2.71E-05,0.013343601
2.71E-05,0.013343601
2.71E-05,0.002149791
2.71E-05,0.013343601
2.72E-05,0.002149791
2.72E-05,0.002149791
2.72E-05,0.005881061
2.72E-05,0.005881061
2.72E-05,0.009612331
2.73E-05,0.017074871
2.73E-05,0.009612331
2.73E-05,0.005881061
2.73E-05,0.017074871
2.73E-05,0.020806141
2.74E-05,-0.005312749
2.74E-05,0.017074871
2.74E-05,0.009612331
2.74E-05,0.024537411
2.74E-05,0.013343601
2.75E-05,0.013343601
2.75E-05,0.005881061
2.75E-05,0.013343601
2.75E-05,0.009612331
2.75E-05,0.013343601
2.76E-05,0.020806141
2.76E-05,0.013343601
2.76E-05,0.002149791
2.76E-05,0.009612331
2.76E-05,0.013343601
2.77E-05,0.009612331
2.77E-05,0.002149791
2.77E-05,0.013343601
2.77E-05,0.005881061
2.77E-05,0.005881061
2.78E-05,0.009612331
2.78E-05,0.005881061
2.78E-05,0.002149791
2.78E-05,0.005881061
2.78E-05,0.002149791
2.79E-05,0.002149791
2.79E-05,-0.001581479
2.79E-05,0.005881061
2.79E-05,0.002149791
2.79E-05,0.005881061
2.80E-05,0.002149791
2.80E-05,0.005881061
2.80E-05,0.009612331
2.80E-05,0.005881061
2.80E-05,0.009612331
2.81E-05,-0.005312749
2.81E-05,-0.001581479
2.81E-05,0.002149791
2.81E-05,0.002149791
2.81E-05,0.002149791
2.82E-05,-0.005312749
2.82E-05,0.002149791
2.82E-05,-0.001581479
2.82E-05,0.002149791
2.82E-05,0.005881061
2.83E-05,-0.001581479
2.83E-05,-0.009044019
2.83E-05,-0.001581479
2.83E-05,0.002149791
2.83E-05,-0.005312749
2.84E-05,0.002149791
2.84E-05,-0.005312749
2.84E-05,-0.005312749
2.84E-05,0.002149791
2.84E-05,-0.012775289
2.85E-05,-0.001581479
2.85E-05,-0.001581479
2.85E-05,-0.001581479
2.85E-05,-0.005312749
2.85E-05,-0.005312749
2.86E-05,-0.001581479
2.86E-05,-0.009044019
2.86E-05,0.002149791
2.86E-05,0.009612331
2.86E-05,-0.009044019
2.87E-05,0.005881061
2.87E-05,-0.012775289
2.87E-05,-0.005312749
2.87E-05,-0.001581479
2.87E-05,0.002149791
2.88E-05,-0.009044019
2.88E-05,-0.005312749
2.88E-05,-0.001581479
2.88E-05,0.002149791
2.88E-05,-0.012775289
2.89E-05,-0.009044019
2.89E-05,0.002149791
2.89E-05,-0.009044019
2.89E-05,-0.009044019
2.89E-05,-0.016506559
2.90E-05,-0.001581479
2.90E-05,-0.005312749
2.90E-05,-0.012775289
2.90E-05,-0.005312749
2.90E-05,-0.012775289
2.91E-05,-0.016506559
2.91E-05,-0.005312749
2.91E-05,-0.009044019
2.91E-05,-0.016506559
2.91E-05,-0.009044019
2.92E-05,-0.005312749
2.92E-05,-0.009044019
2.92E-05,-0.016506559
2.92E-05,-0.009044019
2.92E-05,-0.009044019
2.93E-05,-0.012775289
2.93E-05,-0.02770037
2.93E-05,-0.012775289
2.93E-05,-0.012775289
2.93E-05,-0.009044019
2.94E-05,0.002149791
2.94E-05,-0.001581479
2.94E-05,-0.009044019
2.94E-05,-0.005312749
2.94E-05,-0.005312749
2.95E-05,-0.009044019
2.95E-05,-0.001581479
2.95E-05,-0.005312749
2.95E-05,-0.012775289
2.95E-05,-0.012775289
2.96E-05,-0.012775289
2.96E-05,0.002149791
2.96E-05,-0.009044019
2.96E-05,-0.005312749
2.96E-05,-0.009044019
2.97E-05,-0.009044019
2.97E-05,-0.009044019
2.97E-05,-0.016506559
2.97E-05,0.002149791
2.97E-05,-0.020237829
2.98E-05,-0.001581479
2.98E-05,-0.001581479
2.98E-05,-0.005312749
2.98E-05,-0.009044019
2.98E-05,-0.005312749
2.99E-05,-0.005312749
2.99E-05,-0.020237829
2.99E-05,-0.009044019
2.99E-05,-0.005312749
2.99E-05,-0.005312749
3.00E-05,-0.005312749
3.00E-05,0.002149791
3.00E-05,-0.005312749
3.00E-05,-0.001581479
3.00E-05,-0.020237829
3.01E-05,-0.005312749
3.01E-05,-0.020237829
3.01E-05,-0.016506559
3.01E-05,-0.0239691
3.01E-05,-0.005312749
3.02E-05,-0.005312749
3.02E-05,0.002149791
3.02E-05,-0.001581479
3.02E-05,-0.016506559
3.02E-05,-0.012775289
3.03E-05,-0.009044019
3.03E-05,-0.001581479
3.03E-05,-0.005312749
3.03E-05,0.002149791
3.03E-05,-0.005312749
3.04E-05,-0.005312749
3.04E-05,0.002149791
3.04E-05,-0.001581479
3.04E-05,-0.001581479
3.04E-05,-0.009044019
3.05E-05,-0.012775289
3.05E-05,-0.009044019
3.05E-05,-0.001581479
3.05E-05,-0.005312749
3.05E-05,0.005881061
3.06E-05,-0.012775289
3.06E-05,-0.009044019
3.06E-05,0.002149791
3.06E-05,-0.005312749
3.06E-05,-0.009044019
3.07E-05,-0.001581479
3.07E-05,-0.012775289
3.07E-05,-0.009044019
3.07E-05,-0.001581479
3.07E-05,-0.012775289
3.08E-05,0.002149791
3.08E-05,0.009612331
3.08E-05,-0.005312749
3.08E-05,0.002149791
3.08E-05,-0.001581479
3.09E-05,-0.005312749
3.09E-05,0.002149791
3.09E-05,-0.001581479
3.09E-05,-0.005312749
3.09E-05,0.002149791
3.10E-05,0.002149791
3.10E-05,-0.001581479
3.10E-05,0.002149791
3.10E-05,0.005881061
3.10E-05,-0.005312749
3.11E-05,0.002149791
3.11E-05,0.002149791
3.11E-05,-0.005312749
3.11E-05,-0.001581479
3.11E-05,0.002149791
3.12E-05,0.002149791
3.12E-05,0.002149791
3.12E-05,0.002149791
3.12E-05,-0.016506559
3.12E-05,-0.005312749
3.13E-05,0.002149791
3.13E-05,-0.001581479
3.13E-05,0.005881061
3.13E-05,-0.001581479
3.13E-05,0.009612331
3.14E-05,-0.009044019
3.14E-05,0.013343601
3.14E-05,0.002149791
3.14E-05,0.009612331
3.14E-05,0.002149791
3.15E-05,0.002149791
3.15E-05,0.002149791
3.15E-05,0.002149791
3.15E-05,0.013343601
3.15E-05,0.002149791
3.16E-05,0.005881061
3.16E-05,0.009612331
3.16E-05,0.005881061
3.16E-05,0.013343601
3.16E-05,0.009612331
3.17E-05,0.009612331
3.17E-05,0.002149791
3.17E-05,0.009612331
3.17E-05,0.009612331
3.17E-05,0.017074871
3.18E-05,0.009612331
3.18E-05,0.005881061
3.18E-05,0.009612331
3.18E-05,0.009612331
3.18E-05,0.005881061
3.19E-05,0.009612331
3.19E-05,0.009612331
3.19E-05,0.002149791
3.19E-05,0.013343601
3.19E-05,0.013343601
3.20E-05,0.013343601
3.20E-05,0.024537411
3.20E-05,0.013343601
3.20E-05,0.017074871
3.20E-05,0.005881061
3.21E-05,0.005881061
3.21E-05,0.013343601
3.21E-05,0.017074871
3.21E-05,0.009612331
3.21E-05,0.020806141
3.22E-05,0.013343601
3.22E-05,0.005881061
3.22E-05,0.017074871
3.22E-05,0.020806141
3.22E-05,0.009612331
3.23E-05,0.024537411
3.23E-05,0.017074871
3.23E-05,0.005881061
3.23E-05,0.024537411
3.23E-05,0.013343601
3.24E-05,0.009612331
3.24E-05,0.002149791
3.24E-05,0.020806141
3.24E-05,0.020806141
3.24E-05,0.009612331
3.25E-05,0.024537411
3.25E-05,0.009612331
3.25E-05,0.020806141
3.25E-05,0.017074871
3.25E-05,0.024537411
3.26E-05,0.009612331
3.26E-05,0.017074871
3.26E-05,0.024537411
3.26E-05,0.009612331
3.26E-05,0.013343601
3.27E-05,0.024537411
3.27E-05,0.024537411
3.27E-05,0.013343601
3.27E-05,0.013343601
3.27E-05,0.005881061
3.28E-05,0.013343601
3.28E-05,0.024537411
3.28E-05,0.013343601
3.28E-05,0.017074871
3.28E-05,0.017074871
3.29E-05,0.005881061
3.29E-05,0.013343601
3.29E-05,0.024537411
3.29E-05,0.028268681
3.29E-05,0.028268681
3.30E-05,0.017074871
3.30E-05,0.020806141
3.30E-05,0.013343601
3.30E-05,0.017074871
3.30E-05,0.020806141
3.31E-05,0.009612331
3.31E-05,0.009612331
3.31E-05,0.013343601
3.31E-05,0.013343601
3.31E-05,0.017074871
3.32E-05,0.009612331
3.32E-05,0.017074871
3.32E-05,0.020806141
3.32E-05,0.013343601
3.32E-05,0.013343601
3.33E-05,0.009612331
3.33E-05,0.013343601
3.33E-05,0.005881061
3.33E-05,0.017074871
3.33E-05,0.013343601
3.34E-05,0.017074871
3.34E-05,0.002149791
3.34E-05,0.017074871
3.34E-05,0.013343601
3.34E-05,0.002149791
3.35E-05,0.009612331
3.35E-05,0.009612331
3.35E-05,0.009612331
3.35E-05,-0.009044019
3.35E-05,0.009612331
3.36E-05,-0.001581479
3.36E-05,0.009612331
3.36E-05,0.002149791
3.36E-05,0.013343601
3.36E-05,0.009612331
3.37E-05,0.005881061
3.37E-05,0.009612331
3.37E-05,0.009612331
3.37E-05,0.005881061
3.37E-05,0.013343601
3.38E-05,0.005881061
3.38E-05,0.005881061
3.38E-05,0.009612331
3.38E-05,0.013343601
3.38E-05,0.002149791
3.39E-05,0.002149791
3.39E-05,0.002149791
3.39E-05,0.009612331
3.39E-05,0.002149791
3.39E-05,-0.001581479
3.40E-05,0.005881061
3.40E-05,0.005881061
3.40E-05,0.020806141
3.40E-05,0.009612331
3.40E-05,0.017074871
3.41E-05,0.002149791
3.41E-05,0.009612331
3.41E-05,0.009612331
3.41E-05,0.009612331
3.41E-05,0.028268681
3.42E-05,0.013343601
3.42E-05,0.009612331
3.42E-05,0.005881061
3.42E-05,0.009612331
3.42E-05,0.009612331
3.43E-05,0.020806141
3.43E-05,0.013343601
3.43E-05,0.009612331
3.43E-05,0.009612331
3.43E-05,0.002149791
3.44E-05,0.009612331
3.44E-05,0.005881061
3.44E-05,0.005881061
3.44E-05,0.002149791
3.44E-05,-0.001581479
3.45E-05,0.002149791
3.45E-05,-0.001581479
3.45E-05,0.013343601
3.45E-05,0.009612331
3.45E-05,0.009612331
3.46E-05,0.009612331
3.46E-05,0.009612331
3.46E-05,0.005881061
3.46E-05,0.005881061
3.46E-05,-0.001581479
3.47E-05,0.009612331
3.47E-05,0.017074871
3.47E-05,0.009612331
3.47E-05,0.002149791
3.47E-05,0.002149791
3.48E-05,-0.009044019
3.48E-05,-0.001581479
3.48E-05,-0.005312749
3.48E-05,-0.005312749
3.48E-05,-0.009044019
3.49E-05,-0.009044019
3.49E-05,0.002149791
3.49E-05,-0.005312749
3.49E-05,0.002149791
3.49E-05,-0.009044019
3.50E-05,0.002149791
3.50E-05,-0.009044019
3.50E-05,0.002149791
3.50E-05,0.002149791
3.50E-05,0.009612331
3.51E-05,0.002149791
3.51E-05,-0.009044019
3.51E-05,0.002149791
3.51E-05,0.002149791
3.51E-05,-0.009044019
3.52E-05,0.002149791
3.52E-05,-0.012775289
3.52E-05,-0.001581479
3.52E-05,0.002149791
3.52E-05,-0.001581479
3.53E-05,-0.009044019
3.53E-05,-0.005312749
3.53E-05,-0.001581479
3.53E-05,0.005881061
3.53E-05,-0.001581479
3.54E-05,0.002149791
3.54E-05,-0.001581479
3.54E-05,-0.001581479
3.54E-05,-0.005312749
3.54E-05,-0.001581479
3.55E-05,-0.001581479
3.55E-05,-0.001581479
3.55E-05,-0.005312749
3.55E-05,-0.001581479
3.55E-05,-0.009044019
3.56E-05,0.002149791
3.56E-05,-0.005312749
3.56E-05,0.009612331
3.56E-05,0.002149791
3.56E-05,0.005881061
3.57E-05,0.002149791
3.57E-05,-0.009044019
3.57E-05,0.005881061
3.57E-05,0.002149791
3.57E-05,-0.005312749
3.58E-05,0.009612331
3.58E-05,0.005881061
3.58E-05,0.002149791
3.58E-05,-0.005312749
3.58E-05,0.005881061
3.59E-05,0.002149791
3.59E-05,0.009612331
3.59E-05,0.009612331
3.59E-05,-0.009044019
3.59E-05,0.009612331
3.60E-05,0.005881061
3.60E-05,0.002149791
3.60E-05,-0.001581479
3.60E-05,-0.012775289
3.60E-05,-0.012775289
3.61E-05,-0.005312749
3.61E-05,-0.009044019
3.61E-05,-0.005312749
3.61E-05,-0.001581479
3.61E-05,-0.005312749
3.62E-05,0.002149791
3.62E-05,-0.005312749
3.62E-05,0.002149791
3.62E-05,-0.012775289
3.62E-05,0.005881061
3.63E-05,0.005881061
3.63E-05,0.005881061
3.63E-05,-0.001581479
3.63E-05,0.009612331
3.63E-05,0.002149791
3.64E-05,-0.009044019
3.64E-05,-0.005312749
3.64E-05,-0.001581479
3.64E-05,-0.005312749
3.64E-05,0.002149791
3.65E-05,0.005881061
3.65E-05,0.002149791
3.65E-05,0.002149791
3.65E-05,0.002149791
3.65E-05,-0.005312749
3.66E-05,-0.009044019
3.66E-05,0.002149791
3.66E-05,0.002149791
3.66E-05,-0.005312749
3.66E-05,0.002149791
3.67E-05,-0.005312749
3.67E-05,0.002149791
3.67E-05,0.009612331
3.67E-05,0.002149791
3.67E-05,0.002149791
3.68E-05,0.009612331
3.68E-05,0.005881061
3.68E-05,-0.005312749
3.68E-05,0.002149791
3.68E-05,-0.001581479
3.69E-05,0.002149791
3.69E-05,0.005881061
3.69E-05,0.002149791
3.69E-05,0.009612331
3.69E-05,0.005881061
3.70E-05,0.005881061
3.70E-05,0.017074871
3.70E-05,0.005881061
3.70E-05,0.002149791
3.70E-05,0.002149791
3.71E-05,-0.001581479
3.71E-05,0.005881061
3.71E-05,-0.001581479
3.71E-05,-0.001581479
3.71E-05,0.002149791
3.72E-05,0.002149791
3.72E-05,-0.001581479
3.72E-05,0.002149791
3.72E-05,-0.005312749
3.72E-05,0.005881061
3.73E-05,0.005881061
3.73E-05,-0.001581479
3.73E-05,0.013343601
3.73E-05,0.002149791
3.73E-05,0.009612331
3.74E-05,0.002149791
3.74E-05,0.009612331
3.74E-05,0.009612331
3.74E-05,0.013343601
3.74E-05,0.009612331
3.75E-05,0.002149791
3.75E-05,0.009612331
3.75E-05,0.005881061
3.75E-05,-0.001581479
3.75E-05,0.005881061
3.76E-05,0.005881061
3.76E-05,0.009612331
3.76E-05,0.005881061
3.76E-05,0.009612331
3.76E-05,0.005881061
3.77E-05,0.009612331
3.77E-05,-0.005312749
3.77E-05,0.002149791
3.77E-05,0.002149791
3.77E-05,0.009612331
3.78E-05,0.009612331
3.78E-05,0.009612331
3.78E-05,0.005881061
3.78E-05,0.009612331
3.78E-05,0.002149791
3.79E-05,-0.001581479
3.79E-05,0.002149791
3.79E-05,0.013343601
3.79E-05,0.009612331
3.79E-05,0.009612331
3.80E-05,0.002149791
3.80E-05,0.005881061
3.80E-05,0.005881061
3.80E-05,-0.001581479
3.80E-05,0.002149791
3.81E-05,0.009612331
3.81E-05,0.002149791
3.81E-05,0.002149791
3.81E-05,0.005881061
3.81E-05,0.002149791
3.82E-05,-0.001581479
3.82E-05,0.002149791
3.82E-05,-0.005312749
3.82E-05,-0.009044019
3.82E-05,-0.005312749
3.83E-05,0.009612331
3.83E-05,0.002149791
3.83E-05,0.002149791
3.83E-05,-0.001581479
3.83E-05,0.002149791
3.84E-05,0.002149791
3.84E-05,0.002149791
3.84E-05,0.002149791
3.84E-05,0.005881061
3.84E-05,0.009612331
3.85E-05,-0.005312749
3.85E-05,0.002149791
3.85E-05,0.005881061
3.85E-05,0.013343601
3.85E-05,0.002149791
3.86E-05,0.013343601
3.86E-05,0.002149791
3.86E-05,0.005881061
3.86E-05,0.005881061
3.86E-05,0.002149791
3.87E-05,0.002149791
3.87E-05,0.002149791
3.87E-05,0.013343601
3.87E-05,0.002149791
3.87E-05,0.005881061
3.88E-05,0.017074871
3.88E-05,0.002149791
3.88E-05,0.013343601
3.88E-05,0.009612331
3.88E-05,0.005881061
3.89E-05,0.009612331
3.89E-05,-0.001581479
3.89E-05,-0.001581479
3.89E-05,0.009612331
3.89E-05,0.013343601
3.90E-05,0.002149791
3.90E-05,0.009612331
3.90E-05,0.002149791
3.90E-05,0.013343601
3.90E-05,0.002149791
3.91E-05,0.002149791
3.91E-05,0.002149791
3.91E-05,0.002149791
3.91E-05,0.002149791
3.91E-05,-0.001581479
3.92E-05,0.005881061
3.92E-05,0.013343601
3.92E-05,-0.001581479
3.92E-05,0.009612331
3.92E-05,-0.001581479
3.93E-05,0.017074871
3.93E-05,-0.001581479
3.93E-05,0.009612331
3.93E-05,0.005881061
3.93E-05,-0.001581479
3.94E-05,0.017074871
3.94E-05,0.013343601
3.94E-05,0.002149791
3.94E-05,-0.001581479
3.94E-05,0.005881061
3.95E-05,0.017074871
3.95E-05,0.002149791
3.95E-05,-0.016506559
3.95E-05,0.013343601
3.95E-05,0.009612331
3.96E-05,0.002149791
3.96E-05,-0.005312749
3.96E-05,0.002149791
3.96E-05,-0.005312749
3.96E-05,0.002149791
3.97E-05,0.002149791
3.97E-05,0.005881061
3.97E-05,-0.005312749
3.97E-05,0.002149791
3.97E-05,0.002149791
3.98E-05,0.013343601
3.98E-05,0.002149791
3.98E-05,-0.001581479
3.98E-05,0.009612331
3.98E-05,0.005881061
3.99E-05,-0.001581479
3.99E-05,0.009612331
3.99E-05,0.013343601
3.99E-05,0.005881061
3.99E-05,0.002149791
4.00E-05,0.002149791
4.00E-05,0.002149791
4.00E-05,0.002149791
4.00E-05,0.013343601
4.00E-05,0.005881061
4.01E-05,0.005881061
4.01E-05,0.005881061
4.01E-05,0.009612331
4.01E-05,0.002149791
4.01E-05,0.005881061
4.02E-05,0.002149791
4.02E-05,0.009612331
4.02E-05,0.005881061
4.02E-05,0.005881061
4.02E-05,0.017074871
4.03E-05,0.002149791
4.03E-05,-0.001581479
4.03E-05,-0.005312749
4.03E-05,0.009612331
4.03E-05,0.005881061
4.04E-05,0.002149791
4.04E-05,0.002149791
4.04E-05,0.005881061
4.04E-05,0.009612331
4.04E-05,0.005881061
4.05E-05,-0.005312749
4.05E-05,0.009612331
4.05E-05,0.009612331
4.05E-05,-0.001581479
4.05E-05,0.002149791
4.06E-05,0.002149791
4.06E-05,0.002149791
4.06E-05,0.009612331
4.06E-05,0.013343601
4.06E-05,0.005881061
4.07E-05,0.002149791
4.07E-05,-0.009044019
4.07E-05,0.002149791
4.07E-05,0.017074871
4.07E-05,0.013343601
4.08E-05,0.005881061
4.08E-05,0.002149791
4.08E-05,-0.005312749
4.08E-05,0.002149791
4.08E-05,0.005881061
4.09E-05,0.002149791
4.09E-05,-0.001581479
4.09E-05,-0.005312749
4.09E-05,-0.005312749
4.09E-05,-0.005312749
4.10E-05,-0.001581479
4.10E-05,0.002149791
4.10E-05,-0.001581479
4.10E-05,-0.001581479
4.10E-05,0.002149791
4.11E-05,-0.012775289
4.11E-05,-0.001581479
4.11E-05,0.005881061
4.11E-05,-0.001581479
4.11E-05,0.002149791
4.12E-05,0.005881061
4.12E-05,-0.001581479
4.12E-05,0.002149791
4.12E-05,0.002149791
4.12E-05,-0.005312749
4.13E-05,0.005881061
4.13E-05,0.002149791
4.13E-05,-0.001581479
4.13E-05,0.002149791
4.13E-05,-0.001581479
4.14E-05,0.002149791
4.14E-05,0.009612331
4.14E-05,0.002149791
4.14E-05,0.017074871
4.14E-05,0.002149791
4.15E-05,0.002149791
4.15E-05,0.005881061
4.15E-05,0.009612331
4.15E-05,-0.005312749
4.15E-05,0.002149791
4.16E-05,-0.005312749
4.16E-05,0.002149791
4.16E-05,0.005881061
4.16E-05,0.002149791
4.16E-05,0.005881061
4.17E-05,-0.005312749
4.17E-05,0.005881061
4.17E-05,0.002149791
4.17E-05,0.005881061
4.17E-05,-0.001581479
4.18E-05,0.002149791
4.18E-05,0.005881061
4.18E-05,0.009612331
4.18E-05,-0.001581479
4.18E-05,0.009612331
4.19E-05,0.002149791
4.19E-05,0.002149791
4.19E-05,0.005881061
4.19E-05,0.005881061
4.19E-05,0.009612331
4.20E-05,-0.001581479
4.20E-05,0.009612331
4.20E-05,0.002149791
4.20E-05,0.002149791
4.20E-05,0.002149791
4.21E-05,0.002149791
4.21E-05,0.005881061
4.21E-05,-0.005312749
4.21E-05,0.013343601
4.21E-05,-0.001581479
4.22E-05,0.013343601
4.22E-05,0.005881061
4.22E-05,0.009612331
4.22E-05,0.017074871
4.22E-05,0.005881061
4.23E-05,-0.009044019
4.23E-05,0.002149791
4.23E-05,0.009612331
4.23E-05,0.009612331
4.23E-05,-0.001581479
4.24E-05,0.002149791
4.24E-05,0.013343601
4.24E-05,0.005881061
4.24E-05,0.013343601
4.24E-05,0.005881061
4.25E-05,0.005881061
4.25E-05,0.005881061
4.25E-05,0.002149791
4.25E-05,0.002149791
4.25E-05,0.005881061
4.26E-05,0.002149791
4.26E-05,-0.001581479
4.26E-05,0.002149791
4.26E-05,0.002149791
4.26E-05,0.013343601
4.27E-05,-0.001581479
4.27E-05,0.005881061
4.27E-05,0.013343601
4.27E-05,0.009612331
4.27E-05,-0.005312749
4.28E-05,0.013343601
4.28E-05,0.017074871
4.28E-05,-0.001581479
4.28E-05,-0.001581479
4.28E-05,0.005881061
4.29E-05,-0.005312749
4.29E-05,0.002149791
4.29E-05,0.009612331
4.29E-05,0.005881061
4.29E-05,-0.009044019
4.30E-05,-0.001581479
4.30E-05,0.005881061
4.30E-05,-0.001581479
4.30E-05,0.002149791
4.30E-05,-0.005312749
4.31E-05,0.002149791
4.31E-05,0.002149791
4.31E-05,0.009612331
4.31E-05,0.002149791
4.31E-05,0.002149791
4.32E-05,0.002149791
4.32E-05,0.002149791
4.32E-05,0.002149791
4.32E-05,0.009612331
4.32E-05,0.002149791
4.33E-05,0.013343601
4.33E-05,0.002149791
4.33E-05,0.002149791
4.33E-05,0.009612331
4.33E-05,0.002149791
4.34E-05,-0.001581479
4.34E-05,0.017074871
4.34E-05,0.002149791
4.34E-05,0.005881061
4.34E-05,0.002149791
4.35E-05,0.005881061
4.35E-05,0.005881061
4.35E-05,0.009612331
4.35E-05,0.002149791
4.35E-05,0.005881061
4.36E-05,0.009612331
4.36E-05,0.002149791
4.36E-05,0.017074871
4.36E-05,0.009612331
4.36E-05,0.002149791
4.37E-05,0.002149791
4.37E-05,0.009612331
4.37E-05,-0.001581479
4.37E-05,0.005881061
4.37E-05,0.009612331
4.38E-05,0.020806141
4.38E-05,0.013343601
4.38E-05,0.009612331
4.38E-05,0.009612331
4.38E-05,0.002149791
4.39E-05,0.002149791
4.39E-05,0.009612331
4.39E-05,0.002149791
4.39E-05,0.013343601
4.39E-05,0.009612331
4.40E-05,0.002149791
4.40E-05,0.005881061
4.40E-05,-0.001581479
4.40E-05,0.020806141
4.40E-05,0.013343601
4.41E-05,0.017074871
4.41E-05,0.005881061
4.41E-05,0.002149791
4.41E-05,0.013343601
4.41E-05,0.013343601
4.42E-05,0.005881061
4.42E-05,0.009612331
4.42E-05,-0.001581479
4.42E-05,-0.009044019
4.42E-05,0.005881061
4.43E-05,0.009612331
4.43E-05,0.002149791
4.43E-05,0.005881061
4.43E-05,-0.005312749
4.43E-05,0.002149791
4.44E-05,0.009612331
4.44E-05,0.009612331
4.44E-05,0.002149791
4.44E-05,0.009612331
4.44E-05,0.009612331
4.45E-05,0.009612331
4.45E-05,0.002149791
4.45E-05,-0.001581479
4.45E-05,0.002149791
4.45E-05,0.002149791
4.46E-05,0.002149791
4.46E-05,-0.009044019
4.46E-05,-0.005312749
4.46E-05,-0.005312749
4.46E-05,0.005881061
4.47E-05,0.009612331
4.47E-05,0.009612331
4.47E-05,-0.005312749
4.47E-05,-0.001581479
4.47E-05,0.002149791
4.48E-05,-0.001581479
4.48E-05,0.020806141
4.48E-05,0.013343601
4.48E-05,0.009612331
4.48E-05,0.002149791
4.49E-05,0.017074871
4.49E-05,0.009612331
4.49E-05,-0.005312749
4.49E-05,-0.009044019
4.49E-05,0.002149791
4.50E-05,0.005881061
4.50E-05,0.002149791
4.50E-05,0.002149791
4.50E-05,-0.001581479
4.50E-05,-0.001581479
4.51E-05,0.005881061
4.51E-05,-0.001581479
4.51E-05,0.005881061
4.51E-05,0.009612331
4.51E-05,-0.012775289
4.52E-05,0.002149791
4.52E-05,0.002149791
4.52E-05,0.002149791
4.52E-05,0.002149791
4.52E-05,0.009612331
4.53E-05,-0.005312749
4.53E-05,-0.001581479
4.53E-05,-0.009044019
4.53E-05,-0.001581479
4.53E-05,0.005881061
4.54E-05,0.013343601
4.54E-05,0.002149791
4.54E-05,-0.001581479
4.54E-05,0.002149791
4.54E-05,0.009612331
4.55E-05,0.002149791
4.55E-05,-0.001581479
4.55E-05,-0.001581479
4.55E-05,0.005881061
4.55E-05,0.005881061
4.56E-05,0.005881061
4.56E-05,0.009612331
4.56E-05,0.005881061
4.56E-05,0.002149791
4.56E-05,0.002149791
4.57E-05,0.005881061
4.57E-05,0.002149791
4.57E-05,-0.001581479
4.57E-05,0.002149791
4.57E-05,0.005881061
4.58E-05,0.002149791
4.58E-05,0.013343601
4.58E-05,0.009612331
4.58E-05,-0.005312749
4.58E-05,-0.001581479
4.59E-05,0.002149791
4.59E-05,0.017074871
4.59E-05,0.009612331
4.59E-05,0.002149791
4.59E-05,0.017074871
4.60E-05,0.009612331
4.60E-05,0.013343601
4.60E-05,0.002149791
4.60E-05,0.002149791
4.60E-05,-0.001581479
4.61E-05,-0.001581479
4.61E-05,0.002149791
4.61E-05,0.002149791
4.61E-05,0.002149791
4.61E-05,0.002149791
4.62E-05,-0.001581479
4.62E-05,-0.009044019
4.62E-05,0.005881061
4.62E-05,-0.012775289
4.62E-05,0.013343601
4.63E-05,0.002149791
4.63E-05,0.002149791
4.63E-05,0.017074871
4.63E-05,0.009612331
4.63E-05,0.009612331
4.64E-05,0.009612331
4.64E-05,0.017074871
4.64E-05,0.017074871
4.64E-05,0.005881061
4.64E-05,0.013343601
4.65E-05,0.009612331
4.65E-05,0.005881061
4.65E-05,-0.001581479
4.65E-05,0.005881061
4.65E-05,0.002149791
4.66E-05,0.005881061
4.66E-05,0.005881061
4.66E-05,-0.005312749
4.66E-05,0.002149791
4.66E-05,0.009612331
4.67E-05,0.017074871
4.67E-05,0.002149791
4.67E-05,0.017074871
4.67E-05,0.009612331
4.67E-05,0.002149791
4.68E-05,0.005881061
4.68E-05,0.009612331
4.68E-05,-0.001581479
4.68E-05,0.009612331
4.68E-05,-0.005312749
4.69E-05,0.002149791
4.69E-05,-0.001581479
4.69E-05,0.005881061
4.69E-05,0.002149791
4.69E-05,0.002149791
4.70E-05,0.002149791
4.70E-05,0.005881061
4.70E-05,0.002149791
4.70E-05,0.002149791
4.70E-05,0.002149791
4.71E-05,-0.001581479
4.71E-05,0.009612331
4.71E-05,0.005881061
4.71E-05,0.017074871
4.71E-05,0.005881061
4.72E-05,0.009612331
4.72E-05,0.017074871
4.72E-05,0.009612331
4.72E-05,-0.005312749
4.72E-05,0.005881061
4.73E-05,0.017074871
4.73E-05,0.013343601
4.73E-05,0.013343601
4.73E-05,0.002149791
4.73E-05,0.002149791
4.74E-05,-0.009044019
4.74E-05,0.002149791
4.74E-05,-0.001581479
4.74E-05,0.017074871
4.74E-05,-0.001581479
4.75E-05,-0.001581479
4.75E-05,-0.005312749
4.75E-05,0.002149791
4.75E-05,0.002149791
4.75E-05,-0.005312749
4.76E-05,-0.009044019
4.76E-05,0.002149791
4.76E-05,-0.001581479
4.76E-05,0.002149791
4.76E-05,-0.009044019
4.77E-05,0.005881061
4.77E-05,-0.001581479
4.77E-05,0.002149791
4.77E-05,0.002149791
4.77E-05,0.002149791
4.78E-05,0.005881061
4.78E-05,-0.005312749
4.78E-05,0.005881061
4.78E-05,-0.005312749
4.78E-05,-0.005312749
4.79E-05,-0.009044019
4.79E-05,-0.005312749
4.79E-05,0.005881061
4.79E-05,0.002149791
4.79E-05,-0.001581479
4.80E-05,-0.005312749
4.80E-05,-0.001581479
4.80E-05,-0.005312749
4.80E-05,-0.005312749
4.80E-05,-0.005312749
4.81E-05,-0.001581479
4.81E-05,-0.001581479
4.81E-05,-0.005312749
4.81E-05,0.013343601
4.81E-05,0.005881061
4.82E-05,-0.001581479
4.82E-05,0.009612331
4.82E-05,0.009612331
4.82E-05,0.005881061
4.82E-05,-0.009044019
4.83E-05,-0.009044019
4.83E-05,0.002149791
4.83E-05,-0.005312749
4.83E-05,0.005881061
4.83E-05,0.005881061
4.84E-05,0.002149791
4.84E-05,0.002149791
4.84E-05,-0.009044019
4.84E-05,0.005881061
4.84E-05,0.005881061
4.85E-05,0.002149791
4.85E-05,-0.001581479
4.85E-05,0.005881061
4.85E-05,0.005881061
4.85E-05,0.017074871
4.86E-05,0.005881061
4.86E-05,0.005881061
4.86E-05,0.005881061
4.86E-05,-0.001581479
4.86E-05,0.017074871
4.87E-05,0.005881061
4.87E-05,0.005881061
4.87E-05,0.002149791
4.87E-05,0.002149791
4.87E-05,0.002149791
4.88E-05,0.002149791
4.88E-05,0.002149791
4.88E-05,0.009612331
4.88E-05,0.002149791
4.88E-05,0.005881061
4.89E-05,0.009612331
4.89E-05,0.009612331
4.89E-05,0.013343601
4.89E-05,0.009612331
4.89E-05,0.013343601
4.90E-05,0.009612331
4.90E-05,0.002149791
4.90E-05,0.009612331
4.90E-05,0.009612331
4.90E-05,0.002149791
4.91E-05,-0.001581479
4.91E-05,0.013343601
4.91E-05,0.009612331
4.91E-05,0.013343601
4.91E-05,-0.001581479
4.92E-05,0.002149791
4.92E-05,0.002149791
4.92E-05,0.013343601
4.92E-05,0.024537411
4.92E-05,-0.009044019
4.93E-05,0.002149791
4.93E-05,0.005881061
4.93E-05,0.024537411
4.93E-05,0.002149791
4.93E-05,0.002149791
4.94E-05,0.002149791
4.94E-05,-0.009044019
4.94E-05,0.009612331
4.94E-05,0.020806141
4.94E-05,0.024537411
4.95E-05,0.020806141
4.95E-05,0.009612331
4.95E-05,0.009612331
4.95E-05,0.009612331
4.95E-05,0.013343601
4.96E-05,0.005881061
4.96E-05,0.009612331
4.96E-05,0.002149791
4.96E-05,0.005881061
4.96E-05,0.002149791
4.97E-05,0.009612331
4.97E-05,0.002149791
4.97E-05,-0.001581479
4.97E-05,0.002149791
4.97E-05,-0.005312749
4.98E-05,0.013343601
4.98E-05,0.002149791
4.98E-05,0.009612331
4.98E-05,0.005881061
4.98E-05,-0.001581479
4.99E-05,0.002149791
4.99E-05,0.002149791
4.99E-05,0.002149791
4.99E-05,0.017074871
4.99E-05,0.017074871
5.00E-05,0.009612331
5.00E-05,0.005881061
5.00E-05,-0.001581479
5.00E-05,0.020806141
5.00E-05,0.005881061
5.01E-05,-0.001581479
5.01E-05,0.017074871
5.01E-05,0.017074871
5.01E-05,0.009612331
5.01E-05,0.002149791
5.02E-05,0.013343601
5.02E-05,0.005881061
5.02E-05,0.005881061
5.02E-05,0.013343601
5.02E-05,0.005881061
5.03E-05,0.013343601
5.03E-05,0.009612331
5.03E-05,0.005881061
5.03E-05,0.013343601
5.03E-05,0.009612331
5.04E-05,0.013343601
5.04E-05,0.017074871
5.04E-05,0.002149791
5.04E-05,-0.001581479
5.04E-05,0.005881061
5.05E-05,0.002149791
5.05E-05,0.017074871
5.05E-05,-0.009044019
5.05E-05,0.009612331
5.05E-05,0.009612331
5.06E-05,0.009612331
5.06E-05,0.005881061
5.06E-05,-0.001581479
5.06E-05,0.013343601
5.06E-05,0.005881061
5.07E-05,0.013343601
5.07E-05,0.002149791
5.07E-05,0.009612331
5.07E-05,0.005881061
5.07E-05,0.017074871
5.08E-05,0.002149791
5.08E-05,0.009612331
5.08E-05,0.005881061
5.08E-05,0.005881061
5.08E-05,-0.001581479
5.09E-05,0.002149791
5.09E-05,-0.005312749
5.09E-05,0.005881061
5.09E-05,0.017074871
5.09E-05,0.009612331
5.10E-05,0.013343601
5.10E-05,-0.001581479
5.10E-05,0.009612331
5.10E-05,0.013343601
5.10E-05,0.013343601
5.11E-05,0.013343601
5.11E-05,0.009612331
5.11E-05,-0.001581479
5.11E-05,0.009612331
5.11E-05,0.013343601
5.12E-05,0.005881061
5.12E-05,0.013343601
5.12E-05,0.005881061
5.12E-05,0.002149791
5.12E-05,0.009612331
5.13E-05,0.002149791
5.13E-05,0.009612331
5.13E-05,0.009612331
5.13E-05,0.005881061
5.13E-05,-0.001581479
5.14E-05,-0.005312749
5.14E-05,0.009612331
5.14E-05,0.002149791
5.14E-05,0.005881061
5.14E-05,0.002149791
5.15E-05,0.005881061
5.15E-05,0.002149791
5.15E-05,0.005881061
5.15E-05,0.005881061
5.15E-05,0.009612331
5.16E-05,-0.001581479
5.16E-05,0.002149791
5.16E-05,0.005881061
5.16E-05,0.002149791
5.16E-05,0.002149791
5.17E-05,0.009612331
5.17E-05,0.005881061
5.17E-05,0.002149791
5.17E-05,0.002149791
5.17E-05,0.002149791
5.18E-05,0.009612331
5.18E-05,0.002149791
5.18E-05,0.002149791
5.18E-05,0.013343601
5.18E-05,0.002149791
5.19E-05,0.002149791
5.19E-05,0.013343601
5.19E-05,-0.001581479
5.19E-05,-0.001581479
5.19E-05,-0.001581479
5.20E-05,0.005881061
5.20E-05,0.002149791
5.20E-05,-0.001581479
5.20E-05,-0.005312749
5.20E-05,-0.001581479
5.21E-05,0.002149791
5.21E-05,-0.001581479
5.21E-05,0.002149791
5.21E-05,0.002149791
5.21E-05,0.009612331
5.22E-05,0.002149791
5.22E-05,-0.005312749
5.22E-05,-0.005312749
5.22E-05,0.013343601
5.22E-05,0.002149791
5.23E-05,0.002149791
5.23E-05,0.002149791
5.23E-05,-0.001581479
5.23E-05,0.002149791
5.23E-05,0.002149791
5.24E-05,0.002149791
5.24E-05,0.005881061
5.24E-05,-0.009044019
5.24E-05,-0.001581479
5.24E-05,0.005881061
5.25E-05,0.005881061
5.25E-05,0.009612331
5.25E-05,0.005881061
5.25E-05,0.005881061
5.25E-05,0.002149791
5.26E-05,-0.005312749
5.26E-05,-0.005312749
5.26E-05,-0.005312749
5.26E-05,0.013343601
5.26E-05,0.002149791
5.27E-05,0.005881061
5.27E-05,0.009612331
5.27E-05,0.002149791
5.27E-05,-0.005312749
5.27E-05,0.002149791
5.28E-05,0.005881061
5.28E-05,0.002149791
5.28E-05,0.005881061
5.28E-05,0.009612331
5.28E-05,0.009612331
5.29E-05,0.002149791
5.29E-05,0.009612331
5.29E-05,0.013343601
5.29E-05,-0.001581479
5.29E-05,0.009612331
5.30E-05,0.002149791
5.30E-05,-0.001581479
5.30E-05,0.002149791
5.30E-05,-0.001581479
5.30E-05,-0.012775289
5.31E-05,0.009612331
5.31E-05,-0.005312749
5.31E-05,0.005881061
5.31E-05,0.013343601
5.31E-05,0.009612331
5.32E-05,-0.001581479
5.32E-05,-0.012775289
5.32E-05,0.002149791
5.32E-05,0.002149791
5.32E-05,0.002149791
5.33E-05,0.002149791
5.33E-05,-0.001581479
5.33E-05,0.002149791
5.33E-05,0.002149791
5.33E-05,0.009612331
5.34E-05,0.002149791
5.34E-05,0.005881061
5.34E-05,0.005881061
5.34E-05,0.009612331
5.34E-05,-0.016506559
5.35E-05,-0.005312749
5.35E-05,0.002149791
5.35E-05,0.005881061
5.35E-05,0.005881061
5.35E-05,0.005881061
5.36E-05,0.002149791
5.36E-05,0.002149791
5.36E-05,0.002149791
5.36E-05,-0.009044019
5.36E-05,0.002149791
5.37E-05,-0.009044019
5.37E-05,-0.016506559
5.37E-05,-0.001581479
5.37E-05,-0.009044019
5.37E-05,-0.005312749
5.38E-05,-0.005312749
5.38E-05,-0.001581479
5.38E-05,0.002149791
5.38E-05,-0.001581479
5.38E-05,-0.005312749
5.39E-05,-0.005312749
5.39E-05,-0.005312749
5.39E-05,-0.012775289
5.39E-05,-0.005312749
5.39E-05,-0.005312749
5.40E-05,0.005881061
5.40E-05,-0.012775289
5.40E-05,-0.005312749
5.40E-05,-0.001581479
5.40E-05,0.005881061
5.41E-05,0.002149791
5.41E-05,-0.009044019
5.41E-05,0.002149791
5.41E-05,0.009612331
5.41E-05,0.009612331
5.42E-05,-0.001581479
5.42E-05,0.005881061
5.42E-05,-0.005312749
5.42E-05,-0.005312749
5.42E-05,0.005881061
5.43E-05,0.002149791
5.43E-05,0.002149791
5.43E-05,-0.001581479
5.43E-05,-0.001581479
5.43E-05,0.005881061
5.44E-05,-0.009044019
5.44E-05,-0.005312749
5.44E-05,0.009612331
5.44E-05,-0.005312749
5.44E-05,0.009612331
5.45E-05,-0.001581479
5.45E-05,-0.001581479
5.45E-05,-0.012775289
5.45E-05,-0.012775289
5.45E-05,-0.0239691
5.46E-05,-0.005312749
5.46E-05,0.002149791
5.46E-05,-0.009044019
5.46E-05,0.009612331
5.46E-05,-0.012775289
5.47E-05,-0.005312749
5.47E-05,-0.001581479
5.47E-05,-0.009044019
5.47E-05,-0.001581479
5.47E-05,0.002149791
5.48E-05,0.002149791
5.48E-05,0.005881061
5.48E-05,0.002149791
5.48E-05,0.002149791
5.48E-05,0.005881061
5.49E-05,-0.001581479
5.49E-05,0.002149791
5.49E-05,-0.001581479
5.49E-05,-0.001581479
5.49E-05,0.002149791
5.50E-05,-0.001581479
5.50E-05,-0.005312749
5.50E-05,0.009612331
5.50E-05,-0.005312749
5.50E-05,0.002149791
5.51E-05,-0.001581479
5.51E-05,0.002149791
5.51E-05,0.002149791
5.51E-05,-0.005312749
5.51E-05,0.005881061
5.52E-05,-0.001581479
5.52E-05,-0.001581479
5.52E-05,-0.001581479
5.52E-05,0.002149791
5.52E-05,0.002149791
5.53E-05,0.002149791
5.53E-05,-0.001581479
5.53E-05,0.002149791
5.53E-05,0.002149791
5.53E-05,0.009612331
5.54E-05,-0.005312749
5.54E-05,0.002149791
5.54E-05,0.002149791
5.54E-05,0.002149791
5.54E-05,0.002149791
5.55E-05,0.002149791
5.55E-05,-0.001581479
5.55E-05,-0.001581479
5.55E-05,-0.001581479
5.55E-05,-0.001581479
5.56E-05,0.009612331
5.56E-05,0.009612331
5.56E-05,0.005881061
5.56E-05,0.009612331
5.56E-05,0.002149791
5.57E-05,-0.001581479
5.57E-05,0.009612331
5.57E-05,-0.009044019
5.57E-05,0.005881061
5.57E-05,0.005881061
5.58E-05,0.005881061
5.58E-05,-0.005312749
5.58E-05,-0.001581479
5.58E-05,0.002149791
5.58E-05,-0.005312749
5.59E-05,0.009612331
5.59E-05,0.002149791
5.59E-05,-0.009044019
5.59E-05,0.002149791
5.59E-05,-0.005312749
5.60E-05,0.002149791
5.60E-05,0.002149791
5.60E-05,0.002149791
5.60E-05,0.002149791
5.60E-05,-0.001581479
5.61E-05,0.005881061
5.61E-05,0.005881061
5.61E-05,-0.001581479
5.61E-05,-0.009044019
5.61E-05,0.005881061
5.62E-05,0.002149791
5.62E-05,0.002149791
5.62E-05,-0.005312749
5.62E-05,-0.005312749
5.62E-05,-0.012775289
5.63E-05,-0.012775289
5.63E-05,-0.012775289
5.63E-05,-0.009044019
5.63E-05,-0.001581479
5.63E-05,-0.001581479
5.64E-05,0.005881061
5.64E-05,0.002149791
5.64E-05,-0.001581479
5.64E-05,-0.001581479
5.64E-05,-0.005312749
5.65E-05,-0.005312749
5.65E-05,-0.001581479
5.65E-05,-0.012775289
5.65E-05,-0.001581479
5.65E-05,-0.009044019
5.66E-05,0.017074871
5.66E-05,-0.001581479
5.66E-05,-0.005312749
5.66E-05,-0.005312749
5.66E-05,-0.001581479
5.67E-05,-0.009044019
5.67E-05,-0.009044019
5.67E-05,-0.009044019
5.67E-05,0.002149791
5.67E-05,0.002149791
5.68E-05,-0.005312749
5.68E-05,0.013343601
5.68E-05,-0.012775289
5.68E-05,-0.001581479
5.68E-05,0.002149791
5.69E-05,0.002149791
5.69E-05,0.005881061
5.69E-05,-0.001581479
5.69E-05,0.002149791
5.69E-05,0.009612331
5.70E-05,0.002149791
5.70E-05,-0.005312749
5.70E-05,-0.001581479
5.70E-05,-0.005312749
5.70E-05,-0.009044019
5.71E-05,-0.005312749
5.71E-05,0.005881061
5.71E-05,0.002149791
5.71E-05,0.002149791
5.71E-05,0.005881061
5.72E-05,-0.005312749
5.72E-05,0.002149791
5.72E-05,0.005881061
5.72E-05,-0.009044019
5.72E-05,-0.001581479
5.73E-05,0.005881061
5.73E-05,0.005881061
5.73E-05,0.002149791
5.73E-05,0.009612331
5.73E-05,0.009612331
5.74E-05,0.002149791
5.74E-05,0.013343601
5.74E-05,0.005881061
5.74E-05,0.013343601
5.74E-05,0.002149791
5.75E-05,0.005881061
5.75E-05,-0.005312749
5.75E-05,0.017074871
5.75E-05,-0.001581479
5.75E-05,0.009612331
5.76E-05,0.002149791
5.76E-05,0.002149791
5.76E-05,0.005881061
5.76E-05,0.002149791
5.76E-05,-0.005312749
5.77E-05,0.002149791
5.77E-05,-0.005312749
5.77E-05,0.005881061
5.77E-05,0.005881061
5.77E-05,0.013343601
5.78E-05,0.002149791
5.78E-05,0.005881061
5.78E-05,-0.009044019
5.78E-05,-0.001581479
5.78E-05,-0.005312749
5.79E-05,0.013343601
5.79E-05,0.002149791
5.79E-05,0.005881061
5.79E-05,0.002149791
5.79E-05,0.002149791
5.80E-05,-0.001581479
5.80E-05,0.002149791
5.80E-05,0.002149791
5.80E-05,0.002149791
5.80E-05,-0.005312749
5.81E-05,0.002149791
5.81E-05,-0.001581479
5.81E-05,0.002149791
5.81E-05,-0.001581479
5.81E-05,0.002149791
5.82E-05,-0.005312749
5.82E-05,-0.005312749
5.82E-05,-0.009044019
5.82E-05,0.005881061
5.82E-05,-0.001581479
5.83E-05,-0.005312749
5.83E-05,0.002149791
5.83E-05,-0.005312749
5.83E-05,0.002149791
5.83E-05,-0.005312749
5.84E-05,-0.009044019
5.84E-05,0.009612331
5.84E-05,0.002149791
5.84E-05,0.013343601
5.84E-05,0.002149791
5.85E-05,0.002149791
5.85E-05,0.009612331
5.85E-05,0.002149791
5.85E-05,0.005881061
5.85E-05,0.005881061
5.86E-05,0.005881061
5.86E-05,0.009612331
5.86E-05,0.002149791
5.86E-05,0.005881061
5.86E-05,0.002149791
5.87E-05,0.009612331
5.87E-05,0.013343601
5.87E-05,0.002149791
5.87E-05,0.002149791
5.87E-05,-0.001581479
5.88E-05,0.002149791
5.88E-05,0.017074871
5.88E-05,0.002149791
5.88E-05,0.005881061
5.88E-05,0.009612331
5.89E-05,-0.009044019
5.89E-05,-0.005312749
5.89E-05,0.002149791
5.89E-05,-0.001581479
5.89E-05,-0.001581479
5.90E-05,-0.005312749
5.90E-05,0.005881061
5.90E-05,-0.005312749
5.90E-05,0.005881061
5.90E-05,-0.009044019
5.91E-05,0.013343601
5.91E-05,0.002149791
5.91E-05,0.009612331
5.91E-05,-0.001581479
5.91E-05,0.002149791
5.92E-05,-0.005312749
5.92E-05,0.002149791
5.92E-05,0.002149791
5.92E-05,0.002149791
5.92E-05,-0.001581479
5.93E-05,0.002149791
5.93E-05,-0.001581479
5.93E-05,-0.001581479
5.93E-05,-0.001581479
5.93E-05,0.002149791
5.94E-05,-0.005312749
5.94E-05,-0.001581479
5.94E-05,0.002149791
5.94E-05,0.005881061
5.94E-05,0.005881061
5.95E-05,0.002149791
5.95E-05,0.005881061
5.95E-05,0.002149791
5.95E-05,0.005881061
5.95E-05,0.005881061
5.96E-05,0.005881061
5.96E-05,-0.001581479
5.96E-05,0.005881061
5.96E-05,0.005881061
5.96E-05,0.002149791
5.97E-05,-0.001581479
5.97E-05,0.005881061
5.97E-05,-0.001581479
5.97E-05,0.002149791
5.97E-05,0.009612331
5.98E-05,0.002149791
5.98E-05,0.002149791
5.98E-05,0.002149791
5.98E-05,0.009612331
5.98E-05,0.009612331
5.99E-05,-0.005312749
5.99E-05,-0.005312749
5.99E-05,-0.009044019
5.99E-05,0.009612331
5.99E-05,0.005881061
6.00E-05,-0.005312749
6.00E-05,0.013343601
6.00E-05,0.002149791
6.00E-05,-0.005312749
6.00E-05,-0.001581479
6.01E-05,0.002149791
6.01E-05,-0.005312749
6.01E-05,0.002149791
6.01E-05,0.005881061
6.01E-05,0.013343601
6.02E-05,0.002149791
6.02E-05,-0.001581479
6.02E-05,0.002149791
6.02E-05,0.002149791
6.02E-05,0.002149791
6.03E-05,-0.009044019
6.03E-05,0.002149791
6.03E-05,0.013343601
6.03E-05,0.002149791
6.03E-05,-0.001581479
6.04E-05,-0.001581479
6.04E-05,-0.005312749
6.04E-05,-0.001581479
6.04E-05,0.009612331
6.04E-05,0.002149791
6.05E-05,-0.001581479
6.05E-05,0.005881061
6.05E-05,0.002149791
6.05E-05,0.005881061
6.05E-05,0.009612331
6.06E-05,0.002149791
6.06E-05,-0.001581479
6.06E-05,0.009612331
6.06E-05,0.009612331
6.06E-05,0.005881061
6.07E-05,-0.001581479
6.07E-05,0.002149791
6.07E-05,0.005881061
6.07E-05,0.002149791
6.07E-05,0.005881061
6.08E-05,0.005881061
6.08E-05,-0.009044019
6.08E-05,-0.001581479
6.08E-05,0.002149791
6.08E-05,0.002149791
6.09E-05,0.009612331
6.09E-05,0.005881061
6.09E-05,0.002149791
6.09E-05,0.002149791
6.09E-05,0.013343601
6.10E-05,0.002149791
6.10E-05,0.005881061
6.10E-05,0.013343601
6.10E-05,0.005881061
6.10E-05,0.002149791
6.11E-05,0.002149791
6.11E-05,-0.001581479
6.11E-05,0.013343601
6.11E-05,0.013343601
6.11E-05,0.009612331
6.12E-05,0.005881061
6.12E-05,0.002149791
6.12E-05,-0.001581479
6.12E-05,0.002149791
6.12E-05,0.002149791
6.13E-05,-0.001581479
6.13E-05,0.013343601
6.13E-05,0.013343601
6.13E-05,0.002149791
6.13E-05,-0.001581479
6.14E-05,0.002149791
6.14E-05,0.009612331
6.14E-05,0.005881061
6.14E-05,0.002149791
6.14E-05,0.002149791
6.15E-05,0.002149791
6.15E-05,0.009612331
6.15E-05,0.017074871
6.15E-05,0.005881061
6.15E-05,0.002149791
6.16E-05,0.005881061
6.16E-05,0.005881061
6.16E-05,-0.016506559
6.16E-05,0.005881061
6.16E-05,0.005881061
6.17E-05,0.002149791
6.17E-05,0.002149791
6.17E-05,0.002149791
6.17E-05,-0.001581479
6.17E-05,0.009612331
6.18E-05,0.005881061
6.18E-05,-0.001581479
6.18E-05,0.005881061
6.18E-05,0.002149791
6.18E-05,0.009612331
6.19E-05,0.005881061
6.19E-05,0.002149791
6.19E-05,0.005881061
6.19E-05,0.002149791
6.19E-05,0.005881061
6.20E-05,-0.005312749
6.20E-05,0.002149791
6.20E-05,-0.001581479
6.20E-05,-0.001581479
6.20E-05,0.005881061
6.21E-05,0.002149791
6.21E-05,0.009612331
6.21E-05,0.009612331
6.21E-05,0.009612331
6.21E-05,0.002149791
6.22E-05,0.002149791
6.22E-05,-0.001581479
6.22E-05,0.002149791
6.22E-05,0.013343601
6.22E-05,0.013343601
6.23E-05,0.002149791
6.23E-05,0.009612331
6.23E-05,0.002149791
6.23E-05,0.002149791
6.23E-05,-0.001581479
6.24E-05,-0.005312749
6.24E-05,0.005881061
6.24E-05,-0.001581479
6.24E-05,0.005881061
6.24E-05,0.005881061
6.25E-05,-0.001581479
6.25E-05,0.009612331
6.25E-05,0.013343601
6.25E-05,-0.001581479
6.25E-05,0.009612331
6.26E-05,-0.005312749
6.26E-05,0.005881061
6.26E-05,0.005881061
6.26E-05,-0.012775289
6.26E-05,0.005881061
6.27E-05,0.005881061
6.27E-05,0.002149791
6.27E-05,0.005881061
6.27E-05,-0.001581479
6.27E-05,-0.001581479
6.28E-05,0.005881061
6.28E-05,-0.001581479
6.28E-05,0.005881061
6.28E-05,0.005881061
6.28E-05,-0.005312749
6.29E-05,0.002149791
6.29E-05,0.002149791
6.29E-05,0.009612331
6.29E-05,0.002149791
6.29E-05,0.013343601
6.30E-05,0.002149791
6.30E-05,0.009612331
6.30E-05,-0.001581479
6.30E-05,0.013343601
6.30E-05,0.002149791
6.31E-05,0.005881061
6.31E-05,0.013343601
6.31E-05,0.002149791
6.31E-05,0.002149791
6.31E-05,0.005881061
6.32E-05,0.005881061
6.32E-05,-0.005312749
6.32E-05,0.009612331
6.32E-05,0.002149791
6.32E-05,0.002149791
6.33E-05,0.005881061
6.33E-05,0.002149791
6.33E-05,0.005881061
6.33E-05,0.002149791
6.33E-05,0.002149791
6.34E-05,-0.005312749
6.34E-05,-0.009044019
6.34E-05,0.005881061
6.34E-05,0.002149791
6.34E-05,0.009612331
6.35E-05,0.002149791
6.35E-05,0.002149791
6.35E-05,0.002149791
6.35E-05,-0.005312749
6.35E-05,0.002149791
6.36E-05,0.002149791
6.36E-05,0.009612331
6.36E-05,-0.005312749
6.36E-05,0.005881061
6.36E-05,0.002149791
6.37E-05,0.002149791
6.37E-05,-0.005312749
6.37E-05,0.009612331
6.37E-05,0.009612331
6.37E-05,0.005881061
6.38E-05,0.013343601
6.38E-05,0.002149791
6.38E-05,0.013343601
6.38E-05,-0.001581479
6.38E-05,0.013343601
6.39E-05,0.009612331
6.39E-05,0.009612331
6.39E-05,-0.001581479
6.39E-05,0.009612331
6.39E-05,0.009612331
6.40E-05,0.009612331
6.40E-05,0.002149791
6.40E-05,0.009612331
6.40E-05,0.009612331
6.40E-05,0.002149791
6.41E-05,0.009612331
6.41E-05,0.002149791
6.41E-05,0.005881061
6.41E-05,0.005881061
6.41E-05,0.009612331
6.42E-05,0.017074871
6.42E-05,-0.005312749
6.42E-05,0.002149791
6.42E-05,0.002149791
6.42E-05,0.013343601
6.43E-05,0.002149791
6.43E-05,0.002149791
6.43E-05,0.002149791
6.43E-05,0.009612331
6.43E-05,0.005881061
6.44E-05,0.005881061
6.44E-05,0.005881061
6.44E-05,0.013343601
6.44E-05,0.002149791
6.44E-05,0.013343601
6.45E-05,0.002149791
6.45E-05,0.009612331
6.45E-05,0.009612331
6.45E-05,0.002149791
6.45E-05,-0.001581479
6.46E-05,0.020806141
6.46E-05,-0.001581479
6.46E-05,0.009612331
6.46E-05,0.020806141
6.46E-05,-0.001581479
6.47E-05,0.005881061
6.47E-05,0.009612331
6.47E-05,0.005881061
6.47E-05,0.005881061
6.47E-05,0.009612331
6.48E-05,0.005881061
6.48E-05,0.005881061
6.48E-05,0.017074871
6.48E-05,0.005881061
6.48E-05,0.002149791
6.49E-05,0.013343601
6.49E-05,0.009612331
6.49E-05,0.013343601
6.49E-05,0.009612331
6.49E-05,0.005881061
6.50E-05,0.013343601
6.50E-05,0.024537411
6.50E-05,0.013343601
6.50E-05,0.005881061
6.50E-05,0.009612331
6.51E-05,0.013343601
6.51E-05,0.017074871
6.51E-05,0.013343601
6.51E-05,0.009612331
6.51E-05,0.002149791
6.52E-05,0.009612331
6.52E-05,0.002149791
6.52E-05,0.009612331
6.52E-05,0.013343601
6.52E-05,-0.005312749
6.53E-05,0.013343601
6.53E-05,0.020806141
6.53E-05,-0.005312749
6.53E-05,0.005881061
6.53E-05,0.002149791
6.54E-05,-0.005312749
6.54E-05,0.009612331
6.54E-05,0.002149791
6.54E-05,0.002149791
6.54E-05,-0.001581479
6.55E-05,0.013343601
6.55E-05,0.002149791
6.55E-05,-0.001581479
6.55E-05,0.013343601
6.55E-05,-0.009044019
6.56E-05,0.002149791
6.56E-05,0.002149791
6.56E-05,0.002149791
6.56E-05,0.002149791
6.56E-05,0.002149791
6.57E-05,-0.005312749
6.57E-05,-0.001581479
6.57E-05,-0.001581479
6.57E-05,0.002149791
6.57E-05,0.005881061
6.58E-05,0.002149791
6.58E-05,0.005881061
6.58E-05,0.009612331
6.58E-05,-0.001581479
6.58E-05,-0.001581479
6.59E-05,-0.005312749
6.59E-05,0.002149791
6.59E-05,-0.005312749
6.59E-05,0.005881061
6.59E-05,0.009612331
6.60E-05,-0.005312749
6.60E-05,-0.005312749
6.60E-05,-0.005312749
6.60E-05,-0.005312749
6.60E-05,-0.001581479
6.61E-05,0.002149791
6.61E-05,-0.001581479
6.61E-05,0.005881061
6.61E-05,0.002149791
6.61E-05,0.002149791
6.62E-05,0.009612331
6.62E-05,0.002149791
6.62E-05,-0.001581479
6.62E-05,0.017074871
6.62E-05,0.005881061
6.63E-05,-0.001581479
6.63E-05,0.009612331
6.63E-05,0.005881061
6.63E-05,0.009612331
6.63E-05,0.005881061
6.64E-05,0.005881061
6.64E-05,0.005881061
6.64E-05,0.002149791
6.64E-05,0.005881061
6.64E-05,0.002149791
6.65E-05,0.002149791
6.65E-05,-0.005312749
6.65E-05,0.013343601
6.65E-05,0.005881061
6.65E-05,0.009612331
6.66E-05,0.002149791
6.66E-05,0.009612331
6.66E-05,0.005881061
6.66E-05,0.009612331
6.66E-05,0.009612331
6.67E-05,0.002149791
6.67E-05,0.002149791
6.67E-05,0.002149791
6.67E-05,-0.001581479
6.67E-05,0.002149791
6.68E-05,0.002149791
6.68E-05,0.013343601
6.68E-05,0.013343601
6.68E-05,0.005881061
6.68E-05,0.009612331
6.69E-05,0.005881061
6.69E-05,-0.001581479
6.69E-05,0.013343601
6.69E-05,0.013343601
6.69E-05,0.017074871
6.70E-05,0.002149791
6.70E-05,0.017074871
6.70E-05,0.009612331
6.70E-05,0.013343601
6.70E-05,0.002149791
6.71E-05,0.013343601
6.71E-05,0.009612331
6.71E-05,0.005881061
6.71E-05,-0.001581479
6.71E-05,-0.009044019
6.72E-05,0.009612331
6.72E-05,0.002149791
6.72E-05,0.002149791
6.72E-05,-0.001581479
6.72E-05,0.002149791
6.73E-05,-0.005312749
6.73E-05,-0.009044019
6.73E-05,0.002149791
6.73E-05,-0.005312749
6.73E-05,0.002149791
6.74E-05,0.002149791
6.74E-05,0.005881061
6.74E-05,-0.001581479
6.74E-05,0.002149791
6.74E-05,0.002149791
6.75E-05,0.009612331
6.75E-05,-0.001581479
6.75E-05,0.002149791
6.75E-05,0.002149791
6.75E-05,0.009612331
6.76E-05,0.009612331
6.76E-05,-0.001581479
6.76E-05,-0.005312749
6.76E-05,0.002149791
6.76E-05,-0.001581479
6.77E-05,-0.009044019
6.77E-05,-0.009044019
6.77E-05,0.002149791
6.77E-05,-0.005312749
6.77E-05,0.013343601
6.78E-05,0.005881061
6.78E-05,0.005881061
6.78E-05,-0.001581479
6.78E-05,0.005881061
6.78E-05,-0.005312749
6.79E-05,-0.012775289
6.79E-05,0.002149791
6.79E-05,-0.001581479
6.79E-05,0.002149791
6.79E-05,0.002149791
6.80E-05,-0.001581479
6.80E-05,-0.009044019
6.80E-05,0.002149791
6.80E-05,0.005881061
6.80E-05,0.005881061
6.81E-05,0.009612331
6.81E-05,-0.001581479
6.81E-05,0.005881061
6.81E-05,0.002149791
6.81E-05,0.005881061
6.82E-05,0.005881061
6.82E-05,0.005881061
6.82E-05,0.005881061
6.82E-05,0.002149791
6.82E-05,0.002149791
6.83E-05,0.002149791
6.83E-05,0.005881061
6.83E-05,0.005881061
6.83E-05,0.002149791
6.83E-05,0.009612331
6.84E-05,0.005881061
6.84E-05,0.005881061
6.84E-05,0.002149791
6.84E-05,-0.001581479
6.84E-05,-0.001581479
6.85E-05,0.002149791
6.85E-05,-0.001581479
6.85E-05,0.002149791
6.85E-05,-0.001581479
6.85E-05,0.002149791
6.86E-05,0.002149791
6.86E-05,-0.009044019
6.86E-05,-0.001581479
6.86E-05,-0.001581479
6.86E-05,0.002149791
6.87E-05,-0.012775289
6.87E-05,0.002149791
6.87E-05,0.002149791
6.87E-05,-0.001581479
6.87E-05,0.005881061
6.88E-05,-0.001581479
6.88E-05,0.002149791
6.88E-05,-0.001581479
6.88E-05,-0.009044019
6.88E-05,0.009612331
6.89E-05,-0.005312749
6.89E-05,-0.005312749
6.89E-05,-0.009044019
6.89E-05,-0.009044019
6.89E-05,0.017074871
6.90E-05,-0.005312749
6.90E-05,0.002149791
6.90E-05,0.005881061
6.90E-05,-0.005312749
6.90E-05,-0.001581479
6.91E-05,-0.009044019
6.91E-05,0.002149791
6.91E-05,0.002149791
6.91E-05,-0.001581479
6.91E-05,0.009612331
6.92E-05,-0.001581479
6.92E-05,-0.009044019
6.92E-05,-0.001581479
6.92E-05,-0.016506559
6.92E-05,0.002149791
6.93E-05,-0.001581479
6.93E-05,-0.009044019
6.93E-05,0.002149791
6.93E-05,0.005881061
6.93E-05,0.013343601
6.94E-05,-0.005312749
6.94E-05,-0.001581479
6.94E-05,0.013343601
6.94E-05,-0.005312749
6.94E-05,0.002149791
6.95E-05,0.013343601
6.95E-05,0.002149791
6.95E-05,0.013343601
6.95E-05,-0.005312749
6.95E-05,-0.005312749
6.96E-05,-0.001581479
6.96E-05,0.002149791
6.96E-05,0.005881061
6.96E-05,0.005881061
6.96E-05,0.009612331
6.97E-05,-0.001581479
6.97E-05,0.002149791
6.97E-05,0.002149791
6.97E-05,0.002149791
6.97E-05,0.002149791
6.98E-05,-0.001581479
6.98E-05,-0.001581479
6.98E-05,0.002149791
6.98E-05,0.009612331
6.98E-05,-0.005312749
6.99E-05,-0.005312749
6.99E-05,-0.005312749
6.99E-05,0.005881061
6.99E-05,0.002149791
6.99E-05,-0.005312749
7.00E-05,-0.001581479
7.00E-05,0.005881061
7.00E-05,-0.001581479
7.00E-05,0.013343601
7.00E-05,-0.001581479
7.01E-05,0.005881061
7.01E-05,0.005881061
7.01E-05,0.002149791
7.01E-05,0.009612331
7.01E-05,0.009612331
7.02E-05,0.005881061
7.02E-05,0.005881061
7.02E-05,0.009612331
7.02E-05,0.002149791
7.02E-05,0.002149791
7.03E-05,0.002149791
7.03E-05,0.013343601
7.03E-05,0.013343601
7.03E-05,0.005881061
7.03E-05,0.005881061
7.04E-05,0.017074871
7.04E-05,0.009612331
7.04E-05,0.002149791
7.04E-05,0.009612331
7.04E-05,0.005881061
7.05E-05,0.002149791
7.05E-05,0.002149791
7.05E-05,0.002149791
7.05E-05,-0.001581479
7.05E-05,-0.005312749
7.06E-05,0.005881061
7.06E-05,0.002149791
7.06E-05,0.002149791
7.06E-05,0.009612331
7.06E-05,-0.001581479
7.07E-05,0.017074871
7.07E-05,0.002149791
7.07E-05,-0.005312749
7.07E-05,0.005881061
7.07E-05,0.002149791
7.08E-05,0.002149791
7.08E-05,0.009612331
7.08E-05,0.009612331
7.08E-05,-0.016506559
7.08E-05,-0.001581479
7.09E-05,0.002149791
7.09E-05,0.005881061
7.09E-05,0.005881061
7.09E-05,0.002149791
7.09E-05,0.017074871
7.10E-05,0.013343601
7.10E-05,-0.001581479
7.10E-05,-0.001581479
7.10E-05,0.002149791
7.10E-05,0.005881061
7.11E-05,0.005881061
7.11E-05,0.009612331
7.11E-05,-0.009044019
7.11E-05,0.005881061
7.11E-05,0.002149791
7.12E-05,-0.001581479
7.12E-05,0.005881061
7.12E-05,0.013343601
7.12E-05,0.009612331
7.12E-05,0.002149791
7.13E-05,0.013343601
7.13E-05,0.002149791
7.13E-05,-0.001581479
7.13E-05,0.002149791
7.13E-05,0.020806141
7.14E-05,0.005881061
7.14E-05,0.005881061
7.14E-05,0.009612331
7.14E-05,0.009612331
7.14E-05,0.005881061
7.15E-05,0.013343601
7.15E-05,0.005881061
7.15E-05,0.009612331
7.15E-05,0.005881061
7.15E-05,0.013343601
7.16E-05,-0.001581479
7.16E-05,-0.005312749
7.16E-05,-0.009044019
7.16E-05,0.005881061
7.16E-05,-0.005312749
7.17E-05,0.005881061
7.17E-05,-0.001581479
7.17E-05,0.009612331
7.17E-05,0.009612331
7.17E-05,0.005881061
7.18E-05,0.005881061
7.18E-05,0.005881061
7.18E-05,0.005881061
7.18E-05,0.009612331
7.18E-05,0.005881061
7.19E-05,-0.009044019
7.19E-05,0.002149791
7.19E-05,0.002149791
7.19E-05,-0.001581479
7.19E-05,-0.001581479
7.20E-05,0.009612331
7.20E-05,-0.001581479
7.20E-05,-0.005312749
7.20E-05,-0.001581479
7.20E-05,0.002149791
7.21E-05,-0.005312749
7.21E-05,0.005881061
7.21E-05,0.009612331
7.21E-05,0.002149791
7.21E-05,0.005881061
7.22E-05,0.002149791
7.22E-05,0.002149791
7.22E-05,-0.001581479
7.22E-05,0.013343601
7.22E-05,0.005881061
7.23E-05,0.013343601
7.23E-05,0.002149791
7.23E-05,0.009612331
7.23E-05,0.005881061
7.23E-05,0.002149791
7.24E-05,0.005881061
7.24E-05,0.013343601
7.24E-05,0.005881061
7.24E-05,0.005881061
7.24E-05,0.013343601
7.25E-05,-0.001581479
7.25E-05,0.002149791
7.25E-05,0.005881061
7.25E-05,0.005881061
7.25E-05,0.002149791
7.26E-05,0.005881061
7.26E-05,0.002149791
7.26E-05,0.002149791
7.26E-05,0.002149791
7.26E-05,0.013343601
7.27E-05,0.009612331
7.27E-05,0.002149791
7.27E-05,0.005881061
7.27E-05,0.002149791
7.27E-05,0.013343601
7.28E-05,0.002149791
7.28E-05,0.009612331
7.28E-05,0.002149791
7.28E-05,-0.001581479
7.28E-05,0.002149791
7.29E-05,0.013343601
7.29E-05,0.009612331
7.29E-05,-0.005312749
7.29E-05,-0.005312749
7.29E-05,0.005881061
7.30E-05,0.002149791
7.30E-05,-0.005312749
7.30E-05,-0.005312749
7.30E-05,-0.001581479
7.30E-05,-0.005312749
7.31E-05,0.005881061
7.31E-05,-0.001581479
7.31E-05,-0.016506559
7.31E-05,-0.001581479
7.31E-05,-0.005312749
7.32E-05,-0.001581479
7.32E-05,-0.005312749
7.32E-05,-0.009044019
7.32E-05,-0.009044019
7.32E-05,-0.005312749
7.33E-05,0.002149791
7.33E-05,-0.016506559
7.33E-05,-0.005312749
7.33E-05,-0.001581479
7.33E-05,-0.009044019
7.34E-05,0.002149791
7.34E-05,0.002149791
7.34E-05,0.002149791
7.34E-05,-0.005312749
7.34E-05,0.005881061
7.35E-05,-0.005312749
7.35E-05,0.005881061
7.35E-05,-0.001581479
7.35E-05,-0.005312749
7.35E-05,0.009612331
7.36E-05,-0.012775289
7.36E-05,-0.001581479
7.36E-05,0.002149791
7.36E-05,-0.005312749
7.36E-05,-0.005312749
7.37E-05,-0.001581479
7.37E-05,0.002149791
7.37E-05,0.002149791
7.37E-05,0.005881061
7.37E-05,-0.005312749
7.38E-05,0.002149791
7.38E-05,-0.001581479
7.38E-05,-0.009044019
7.38E-05,-0.012775289
7.38E-05,0.002149791
7.39E-05,-0.016506559
7.39E-05,-0.005312749
7.39E-05,-0.005312749
7.39E-05,0.002149791
7.39E-05,-0.009044019
7.40E-05,0.002149791
7.40E-05,0.002149791
7.40E-05,0.005881061
7.40E-05,0.013343601
7.40E-05,-0.005312749
7.41E-05,0.002149791
7.41E-05,0.005881061
7.41E-05,0.002149791
7.41E-05,0.002149791
7.41E-05,0.005881061
7.42E-05,0.002149791
7.42E-05,0.005881061
7.42E-05,0.009612331
7.42E-05,-0.001581479
7.42E-05,0.013343601
7.43E-05,-0.009044019
7.43E-05,0.009612331
7.43E-05,0.005881061
7.43E-05,-0.005312749
7.43E-05,0.009612331
7.44E-05,0.017074871
7.44E-05,0.002149791
7.44E-05,0.005881061
7.44E-05,0.013343601
7.44E-05,0.005881061
7.45E-05,0.009612331
7.45E-05,0.013343601
7.45E-05,0.009612331
7.45E-05,0.005881061
7.45E-05,0.002149791
7.46E-05,0.002149791
7.46E-05,0.005881061
7.46E-05,0.009612331
7.46E-05,0.002149791
7.46E-05,0.017074871
7.47E-05,0.013343601
7.47E-05,0.002149791
7.47E-05,0.013343601
7.47E-05,-0.009044019
7.47E-05,0.009612331
7.48E-05,0.005881061
7.48E-05,0.005881061
7.48E-05,0.009612331
7.48E-05,-0.001581479
7.48E-05,0.017074871
7.49E-05,0.002149791
7.49E-05,0.009612331
7.49E-05,0.002149791
7.49E-05,0.005881061
7.49E-05,0.002149791
7.50E-05,0.005881061
7.50E-05,0.009612331
7.50E-05,0.009612331
7.50E-05,0.002149791
7.50E-05,0.002149791
7.51E-05,0.002149791
7.51E-05,-0.001581479
7.51E-05,0.002149791
7.51E-05,0.005881061
7.51E-05,0.013343601
7.52E-05,0.002149791
7.52E-05,0.017074871
7.52E-05,-0.005312749
7.52E-05,0.009612331
7.52E-05,-0.012775289
7.53E-05,0.002149791
7.53E-05,0.009612331
7.53E-05,0.017074871
7.53E-05,-0.001581479
7.53E-05,-0.001581479
7.54E-05,0.009612331
7.54E-05,0.005881061
7.54E-05,-0.001581479
7.54E-05,0.009612331
7.54E-05,0.002149791
7.55E-05,0.005881061
7.55E-05,0.005881061
7.55E-05,-0.005312749
7.55E-05,0.002149791
7.55E-05,-0.001581479
7.56E-05,0.009612331
7.56E-05,0.002149791
7.56E-05,-0.001581479
7.56E-05,0.002149791
7.56E-05,-0.005312749
7.57E-05,-0.001581479
7.57E-05,0.005881061
7.57E-05,0.009612331
7.57E-05,-0.001581479
7.57E-05,0.013343601
7.58E-05,-0.001581479
7.58E-05,-0.005312749
7.58E-05,0.002149791
7.58E-05,0.009612331
7.58E-05,-0.001581479
7.59E-05,0.002149791
7.59E-05,-0.001581479
7.59E-05,0.002149791
7.59E-05,0.005881061
7.59E-05,0.020806141
7.60E-05,0.009612331
7.60E-05,0.005881061
7.60E-05,0.005881061
7.60E-05,0.005881061
7.60E-05,-0.001581479
7.61E-05,0.009612331
7.61E-05,-0.005312749
7.61E-05,0.002149791
7.61E-05,0.002149791
7.61E-05,0.005881061
7.62E-05,0.009612331
7.62E-05,0.009612331
7.62E-05,0.005881061
7.62E-05,0.002149791
7.62E-05,0.002149791
7.63E-05,0.009612331
7.63E-05,-0.001581479
7.63E-05,0.009612331
7.63E-05,0.002149791
7.63E-05,0.020806141
7.64E-05,0.005881061
7.64E-05,0.005881061
7.64E-05,0.002149791
7.64E-05,0.005881061
7.64E-05,0.002149791
7.65E-05,0.005881061
7.65E-05,0.005881061
7.65E-05,0.009612331
7.65E-05,0.009612331
7.65E-05,0.002149791
7.66E-05,0.009612331
7.66E-05,0.017074871
7.66E-05,-0.005312749
7.66E-05,0.009612331
7.66E-05,0.005881061
7.67E-05,0.002149791
7.67E-05,0.013343601
7.67E-05,0.009612331
7.67E-05,0.005881061
7.67E-05,0.005881061
7.68E-05,0.009612331
7.68E-05,-0.001581479
7.68E-05,0.002149791
7.68E-05,0.005881061
7.68E-05,0.005881061
7.69E-05,0.009612331
7.69E-05,-0.001581479
7.69E-05,0.009612331
7.69E-05,0.005881061
7.69E-05,0.002149791
7.70E-05,0.002149791
7.70E-05,-0.005312749
7.70E-05,0.002149791
7.70E-05,0.009612331
7.70E-05,0.002149791
7.71E-05,0.009612331
7.71E-05,-0.001581479
7.71E-05,-0.009044019
7.71E-05,0.002149791
7.71E-05,-0.001581479
7.72E-05,0.002149791
7.72E-05,-0.001581479
7.72E-05,0.002149791
7.72E-05,0.002149791
7.72E-05,0.005881061
7.73E-05,-0.001581479
7.73E-05,-0.001581479
7.73E-05,0.005881061
7.73E-05,0.002149791
7.73E-05,0.002149791
7.74E-05,0.005881061
7.74E-05,-0.005312749
7.74E-05,0.005881061
7.74E-05,-0.005312749
7.74E-05,-0.005312749
7.75E-05,-0.001581479
7.75E-05,-0.001581479
7.75E-05,0.002149791
7.75E-05,0.002149791
7.75E-05,0.005881061
7.76E-05,0.002149791
7.76E-05,-0.005312749
7.76E-05,-0.009044019
7.76E-05,-0.009044019
7.76E-05,0.002149791
7.77E-05,0.002149791
7.77E-05,-0.005312749
7.77E-05,0.002149791
7.77E-05,0.002149791
7.77E-05,-0.009044019
7.78E-05,0.002149791
7.78E-05,0.002149791
7.78E-05,0.002149791
7.78E-05,0.002149791
7.78E-05,-0.001581479
7.79E-05,-0.005312749
7.79E-05,0.002149791
7.79E-05,-0.001581479
7.79E-05,0.009612331
7.79E-05,0.005881061
7.80E-05,0.009612331
7.80E-05,-0.005312749
7.80E-05,0.002149791
7.80E-05,0.005881061
7.80E-05,-0.005312749
7.81E-05,0.002149791
7.81E-05,0.002149791
7.81E-05,0.013343601
7.81E-05,0.005881061
7.81E-05,0.002149791
7.82E-05,0.002149791
7.82E-05,0.005881061
7.82E-05,-0.001581479
7.82E-05,0.002149791
7.82E-05,0.005881061
7.83E-05,0.013343601
7.83E-05,0.009612331
7.83E-05,-0.001581479
7.83E-05,0.002149791
7.83E-05,-0.001581479
7.84E-05,-0.009044019
7.84E-05,0.005881061
7.84E-05,0.013343601
7.84E-05,0.009612331
7.84E-05,0.002149791
7.85E-05,0.013343601
7.85E-05,0.013343601
7.85E-05,0.005881061
7.85E-05,0.005881061
7.85E-05,0.005881061
7.86E-05,0.009612331
7.86E-05,0.013343601
7.86E-05,0.002149791
7.86E-05,0.013343601
7.86E-05,0.009612331
7.87E-05,-0.001581479
7.87E-05,0.005881061
7.87E-05,0.013343601
7.87E-05,0.005881061
7.87E-05,0.009612331
7.88E-05,0.002149791
7.88E-05,-0.005312749
7.88E-05,0.009612331
7.88E-05,0.002149791
7.88E-05,0.009612331
7.89E-05,0.002149791
7.89E-05,0.002149791
7.89E-05,0.009612331
7.89E-05,0.002149791
7.89E-05,0.002149791
7.90E-05,0.005881061
7.90E-05,0.002149791
7.90E-05,-0.001581479
7.90E-05,-0.001581479
7.90E-05,0.005881061
7.91E-05,0.002149791
7.91E-05,-0.001581479
7.91E-05,0.005881061
7.91E-05,-0.001581479
7.91E-05,-0.009044019
7.92E-05,0.002149791
7.92E-05,0.002149791
7.92E-05,0.002149791
7.92E-05,0.002149791
7.92E-05,-0.001581479
7.93E-05,-0.001581479
7.93E-05,-0.001581479
7.93E-05,-0.001581479
7.93E-05,0.005881061
7.93E-05,0.002149791
7.94E-05,0.002149791
7.94E-05,0.009612331
7.94E-05,0.002149791
7.94E-05,-0.005312749
7.94E-05,-0.005312749
7.95E-05,-0.001581479
7.95E-05,0.002149791
7.95E-05,0.005881061
7.95E-05,-0.005312749
7.95E-05,0.009612331
7.96E-05,0.002149791
7.96E-05,0.002149791
7.96E-05,0.005881061
7.96E-05,0.002149791
7.96E-05,0.002149791
7.97E-05,0.009612331
7.97E-05,0.005881061
7.97E-05,0.002149791
7.97E-05,-0.001581479
7.97E-05,-0.001581479
7.98E-05,0.013343601
7.98E-05,0.002149791
7.98E-05,0.009612331
7.98E-05,-0.001581479
7.98E-05,-0.001581479
7.99E-05,-0.001581479
7.99E-05,-0.001581479
7.99E-05,-0.005312749
7.99E-05,0.005881061
7.99E-05,0.013343601
8.00E-05,0.002149791
8.00E-05,-0.009044019
8.00E-05,-0.012775289
8.00E-05,0.002149791
8.00E-05,-0.009044019
8.01E-05,0.002149791
8.01E-05,-0.005312749
8.01E-05,0.005881061
8.01E-05,0.005881061
8.01E-05,-0.005312749
8.02E-05,-0.001581479
8.02E-05,0.002149791
8.02E-05,-0.001581479
8.02E-05,0.002149791
8.02E-05,0.002149791
8.03E-05,0.009612331
8.03E-05,0.002149791
8.03E-05,0.002149791
8.03E-05,0.002149791
8.03E-05,0.002149791
8.04E-05,-0.005312749
8.04E-05,-0.001581479
8.04E-05,0.002149791
8.04E-05,0.005881061
8.04E-05,0.002149791
8.05E-05,0.005881061
8.05E-05,0.009612331
8.05E-05,0.005881061
8.05E-05,0.005881061
8.05E-05,-0.001581479
8.06E-05,-0.001581479
8.06E-05,0.005881061
8.06E-05,-0.005312749
8.06E-05,-0.001581479
8.06E-05,-0.005312749
8.07E-05,-0.005312749
8.07E-05,-0.001581479
8.07E-05,-0.001581479
8.07E-05,-0.001581479
8.07E-05,-0.001581479
8.08E-05,-0.009044019
8.08E-05,-0.009044019
8.08E-05,0.002149791
8.08E-05,0.002149791
8.08E-05,-0.005312749
8.09E-05,0.017074871
8.09E-05,-0.001581479
8.09E-05,-0.001581479
8.09E-05,-0.001581479
8.09E-05,-0.005312749
8.10E-05,0.005881061
8.10E-05,0.002149791
8.10E-05,0.002149791
8.10E-05,0.005881061
8.10E-05,-0.001581479
8.11E-05,-0.001581479
8.11E-05,-0.001581479
8.11E-05,0.002149791
8.11E-05,-0.005312749
8.11E-05,-0.012775289
8.12E-05,0.002149791
8.12E-05,0.002149791
8.12E-05,-0.001581479
8.12E-05,-0.005312749
8.12E-05,-0.005312749
8.13E-05,-0.009044019
8.13E-05,0.002149791
8.13E-05,0.005881061
8.13E-05,-0.012775289
8.13E-05,-0.005312749
8.14E-05,-0.001581479
8.14E-05,0.002149791
8.14E-05,0.005881061
8.14E-05,0.005881061
8.14E-05,0.002149791
8.15E-05,0.002149791
8.15E-05,0.002149791
8.15E-05,0.009612331
8.15E-05,-0.001581479
8.15E-05,0.005881061
8.16E-05,0.009612331
8.16E-05,0.002149791
8.16E-05,0.009612331
8.16E-05,0.002149791
8.16E-05,0.002149791
8.17E-05,-0.005312749
8.17E-05,0.013343601
8.17E-05,0.002149791
8.17E-05,-0.001581479
8.17E-05,0.005881061
8.18E-05,0.002149791
8.18E-05,0.009612331
8.18E-05,0.009612331
8.18E-05,0.009612331
8.18E-05,-0.001581479
8.19E-05,-0.009044019
8.19E-05,0.009612331
8.19E-05,0.009612331
8.19E-05,0.013343601
8.19E-05,0.002149791
8.20E-05,0.009612331
8.20E-05,0.009612331
8.20E-05,0.009612331
8.20E-05,0.002149791
8.20E-05,0.002149791
8.21E-05,0.002149791
8.21E-05,0.009612331
8.21E-05,0.002149791
8.21E-05,0.009612331
8.21E-05,-0.001581479
8.22E-05,0.009612331
8.22E-05,0.002149791
8.22E-05,-0.005312749
8.22E-05,0.005881061
8.22E-05,0.009612331
8.23E-05,0.005881061
8.23E-05,0.002149791
8.23E-05,0.017074871
8.23E-05,-0.001581479
8.23E-05,-0.012775289
8.24E-05,0.002149791
8.24E-05,-0.001581479
8.24E-05,0.002149791
8.24E-05,0.005881061
8.24E-05,0.009612331
8.25E-05,0.020806141
8.25E-05,0.002149791
8.25E-05,-0.001581479
8.25E-05,0.005881061
8.25E-05,-0.001581479
8.26E-05,0.009612331
8.26E-05,0.002149791
8.26E-05,0.005881061
8.26E-05,0.002149791
8.26E-05,0.002149791
8.27E-05,0.002149791
8.27E-05,0.013343601
8.27E-05,0.009612331
8.27E-05,0.013343601
8.27E-05,0.009612331
8.28E-05,0.013343601
8.28E-05,0.009612331
8.28E-05,-0.001581479
8.28E-05,0.002149791
8.28E-05,0.009612331
8.29E-05,0.013343601
8.29E-05,0.017074871
8.29E-05,0.002149791
8.29E-05,0.002149791
8.29E-05,0.013343601
8.30E-05,0.009612331
8.30E-05,0.017074871
8.30E-05,0.002149791
8.30E-05,0.005881061
8.30E-05,0.002149791
8.31E-05,0.002149791
8.31E-05,0.005881061
8.31E-05,0.013343601
8.31E-05,0.009612331
8.31E-05,0.017074871
8.32E-05,0.009612331
8.32E-05,0.009612331
8.32E-05,0.017074871
8.32E-05,0.013343601
8.32E-05,0.002149791
8.33E-05,0.002149791
8.33E-05,-0.001581479
8.33E-05,0.005881061
8.33E-05,0.009612331
8.33E-05,0.005881061
8.34E-05,0.013343601
8.34E-05,0.002149791
8.34E-05,0.009612331
8.34E-05,0.002149791
8.34E-05,0.002149791
8.35E-05,-0.001581479
8.35E-05,0.005881061
8.35E-05,0.005881061
8.35E-05,0.005881061
8.35E-05,0.005881061
8.36E-05,0.013343601
8.36E-05,0.013343601
8.36E-05,-0.001581479
8.36E-05,-0.001581479
8.36E-05,0.002149791
8.37E-05,0.002149791
8.37E-05,0.002149791
8.37E-05,0.002149791
8.37E-05,0.005881061
8.37E-05,-0.009044019
8.38E-05,-0.001581479
8.38E-05,-0.001581479
8.38E-05,-0.005312749
8.38E-05,-0.009044019
8.38E-05,0.002149791
8.39E-05,0.005881061
8.39E-05,0.009612331
8.39E-05,0.013343601
8.39E-05,-0.012775289
8.39E-05,0.005881061
8.40E-05,0.005881061
8.40E-05,0.009612331
8.40E-05,0.005881061
8.40E-05,0.009612331
8.40E-05,-0.001581479
8.41E-05,0.005881061
8.41E-05,-0.012775289
8.41E-05,0.005881061
8.41E-05,-0.001581479
8.41E-05,-0.005312749
8.42E-05,0.002149791
8.42E-05,-0.005312749
8.42E-05,-0.005312749
8.42E-05,0.002149791
8.42E-05,-0.009044019
8.43E-05,-0.005312749
8.43E-05,-0.001581479
8.43E-05,-0.001581479
8.43E-05,-0.001581479
8.43E-05,0.002149791
8.44E-05,-0.005312749
8.44E-05,0.005881061
8.44E-05,-0.005312749
8.44E-05,-0.001581479
8.44E-05,0.005881061
8.45E-05,0.002149791
8.45E-05,0.005881061
8.45E-05,0.002149791
8.45E-05,0.005881061
8.45E-05,0.002149791
8.46E-05,0.005881061
8.46E-05,0.009612331
8.46E-05,0.002149791
8.46E-05,-0.001581479
8.46E-05,-0.001581479
8.47E-05,0.002149791
8.47E-05,0.009612331
8.47E-05,-0.001581479
8.47E-05,-0.001581479
8.47E-05,0.002149791
8.48E-05,-0.009044019
8.48E-05,0.009612331
8.48E-05,0.005881061
8.48E-05,-0.005312749
8.48E-05,-0.001581479
8.49E-05,-0.005312749
8.49E-05,-0.005312749
8.49E-05,-0.009044019
8.49E-05,0.002149791
8.49E-05,0.002149791
8.50E-05,0.002149791
8.50E-05,-0.001581479
8.50E-05,0.002149791
8.50E-05,0.002149791
8.50E-05,0.005881061
8.51E-05,0.013343601
8.51E-05,0.002149791
8.51E-05,0.002149791
8.51E-05,0.009612331
8.51E-05,0.005881061
8.52E-05,-0.001581479
8.52E-05,0.017074871
8.52E-05,0.005881061
8.52E-05,-0.005312749
8.52E-05,0.009612331
8.53E-05,-0.001581479
8.53E-05,-0.005312749
8.53E-05,0.002149791
8.53E-05,0.009612331
8.53E-05,0.002149791
8.54E-05,-0.001581479
8.54E-05,0.002149791
8.54E-05,-0.005312749
8.54E-05,-0.001581479
8.54E-05,-0.005312749
8.55E-05,-0.001581479
8.55E-05,0.005881061
8.55E-05,0.005881061
8.55E-05,0.013343601
8.55E-05,-0.001581479
8.56E-05,-0.001581479
8.56E-05,-0.005312749
8.56E-05,-0.005312749
8.56E-05,-0.001581479
8.56E-05,-0.005312749
8.57E-05,-0.005312749
8.57E-05,-0.009044019
8.57E-05,0.009612331
8.57E-05,0.005881061
8.57E-05,-0.005312749
8.58E-05,-0.001581479
8.58E-05,0.002149791
8.58E-05,0.002149791
8.58E-05,0.005881061
8.58E-05,0.002149791
8.59E-05,-0.005312749
8.59E-05,-0.001581479
8.59E-05,0.005881061
8.59E-05,-0.001581479
8.59E-05,-0.009044019
8.60E-05,0.002149791
8.60E-05,0.009612331
8.60E-05,0.002149791
8.60E-05,0.002149791
8.60E-05,0.005881061
8.61E-05,0.005881061
8.61E-05,-0.012775289
8.61E-05,-0.001581479
8.61E-05,-0.001581479
8.61E-05,-0.005312749
8.62E-05,0.002149791
8.62E-05,0.002149791
8.62E-05,-0.001581479
8.62E-05,-0.005312749
8.62E-05,-0.009044019
8.63E-05,-0.005312749
8.63E-05,-0.001581479
8.63E-05,-0.005312749
8.63E-05,-0.009044019
8.63E-05,-0.005312749
8.64E-05,0.002149791
8.64E-05,-0.005312749
8.64E-05,-0.001581479
8.64E-05,0.002149791
8.64E-05,-0.005312749
8.65E-05,-0.009044019
8.65E-05,-0.005312749
8.65E-05,0.002149791
8.65E-05,-0.009044019
8.65E-05,-0.005312749
8.66E-05,-0.001581479
8.66E-05,0.002149791
8.66E-05,0.002149791
8.66E-05,-0.005312749
8.66E-05,0.005881061
8.67E-05,-0.001581479
8.67E-05,-0.001581479
8.67E-05,-0.009044019
8.67E-05,-0.009044019
8.67E-05,0.005881061
8.68E-05,-0.012775289
8.68E-05,-0.005312749
8.68E-05,-0.012775289
8.68E-05,-0.005312749
8.68E-05,0.002149791
8.69E-05,-0.001581479
8.69E-05,0.002149791
8.69E-05,0.002149791
8.69E-05,0.005881061
8.69E-05,-0.012775289
8.70E-05,0.005881061
8.70E-05,-0.005312749
8.70E-05,0.005881061
8.70E-05,0.002149791
8.70E-05,0.005881061
8.71E-05,-0.012775289
8.71E-05,0.005881061
8.71E-05,-0.005312749
8.71E-05,0.002149791
8.71E-05,0.002149791
8.72E-05,0.002149791
8.72E-05,0.002149791
8.72E-05,0.013343601
8.72E-05,0.005881061
8.72E-05,0.002149791
8.73E-05,0.005881061
8.73E-05,0.005881061
8.73E-05,0.005881061
8.73E-05,0.009612331
8.73E-05,0.002149791
8.74E-05,0.002149791
8.74E-05,0.002149791
8.74E-05,-0.005312749
8.74E-05,0.002149791
8.74E-05,-0.001581479
8.75E-05,0.002149791
8.75E-05,-0.005312749
8.75E-05,0.005881061
8.75E-05,-0.001581479
8.75E-05,0.009612331
8.76E-05,-0.001581479
8.76E-05,0.002149791
8.76E-05,0.002149791
8.76E-05,-0.001581479
8.76E-05,0.009612331
8.77E-05,0.005881061
8.77E-05,0.005881061
8.77E-05,0.013343601
8.77E-05,0.002149791
8.77E-05,0.009612331
8.78E-05,0.002149791
8.78E-05,0.002149791
8.78E-05,0.013343601
8.78E-05,0.009612331
8.78E-05,0.002149791
8.79E-05,0.002149791
8.79E-05,0.002149791
8.79E-05,0.013343601
8.79E-05,0.005881061
8.79E-05,0.002149791
8.80E-05,0.002149791
8.80E-05,0.005881061
8.80E-05,0.005881061
8.80E-05,0.005881061
8.80E-05,0.013343601
8.81E-05,0.005881061
8.81E-05,0.013343601
8.81E-05,0.002149791
8.81E-05,0.005881061
8.81E-05,0.002149791
8.82E-05,0.009612331
8.82E-05,0.002149791
8.82E-05,0.013343601
8.82E-05,0.002149791
8.82E-05,0.002149791
8.83E-05,0.005881061
8.83E-05,0.005881061
8.83E-05,0.005881061
8.83E-05,0.013343601
8.83E-05,0.013343601
8.84E-05,0.005881061
8.84E-05,0.002149791
8.84E-05,-0.009044019
8.84E-05,-0.001581479
8.84E-05,0.020806141
8.85E-05,0.002149791
8.85E-05,0.009612331
8.85E-05,0.002149791
8.85E-05,0.009612331
8.85E-05,0.002149791
8.86E-05,0.002149791
8.86E-05,0.005881061
8.86E-05,0.017074871
8.86E-05,0.009612331
8.86E-05,0.013343601
8.87E-05,0.002149791
8.87E-05,0.009612331
8.87E-05,0.002149791
8.87E-05,0.009612331
8.87E-05,0.013343601
8.88E-05,0.002149791
8.88E-05,0.009612331
8.88E-05,0.005881061
8.88E-05,0.002149791
8.88E-05,-0.009044019
8.89E-05,-0.005312749
8.89E-05,0.009612331
8.89E-05,0.002149791
8.89E-05,0.002149791
8.89E-05,0.002149791
8.90E-05,0.005881061
8.90E-05,-0.001581479
8.90E-05,0.002149791
8.90E-05,-0.001581479
8.90E-05,-0.012775289
8.91E-05,0.002149791
8.91E-05,0.009612331
8.91E-05,-0.001581479
8.91E-05,-0.001581479
8.91E-05,0.005881061
8.92E-05,-0.005312749
8.92E-05,-0.001581479
8.92E-05,0.002149791
8.92E-05,0.002149791
8.92E-05,0.002149791
8.93E-05,-0.012775289
8.93E-05,0.005881061
8.93E-05,-0.001581479
8.93E-05,0.002149791
8.93E-05,0.002149791
8.94E-05,-0.005312749
8.94E-05,-0.005312749
8.94E-05,0.005881061
8.94E-05,-0.001581479
8.94E-05,0.002149791
8.95E-05,-0.016506559
8.95E-05,-0.001581479
8.95E-05,0.002149791
8.95E-05,0.009612331
8.95E-05,-0.012775289
8.96E-05,0.002149791
8.96E-05,-0.001581479
8.96E-05,0.005881061
8.96E-05,-0.001581479
8.96E-05,0.009612331
8.97E-05,-0.005312749
8.97E-05,0.002149791
8.97E-05,0.005881061
8.97E-05,0.005881061
8.97E-05,-0.001581479
8.98E-05,0.005881061
8.98E-05,-0.005312749
8.98E-05,0.005881061
8.98E-05,0.005881061
8.98E-05,0.002149791
8.99E-05,-0.005312749
8.99E-05,0.002149791
8.99E-05,-0.009044019
8.99E-05,0.002149791
8.99E-05,0.002149791
9.00E-05,-0.001581479
9.00E-05,0.005881061
9.00E-05,-0.005312749
9.00E-05,0.002149791
9.00E-05,0.017074871
9.01E-05,-0.001581479
9.01E-05,0.002149791
9.01E-05,-0.009044019
9.01E-05,-0.001581479
9.01E-05,0.013343601
9.02E-05,-0.001581479
9.02E-05,-0.005312749
9.02E-05,0.002149791
9.02E-05,0.005881061
9.02E-05,0.017074871
9.03E-05,0.005881061
9.03E-05,0.002149791
9.03E-05,0.002149791
9.03E-05,0.002149791
9.03E-05,0.005881061
9.04E-05,0.005881061
9.04E-05,-0.001581479
9.04E-05,0.013343601
9.04E-05,0.013343601
9.04E-05,0.017074871
9.05E-05,0.009612331
9.05E-05,0.005881061
9.05E-05,0.013343601
9.05E-05,0.002149791
9.05E-05,0.005881061
9.06E-05,0.002149791
9.06E-05,0.002149791
9.06E-05,0.009612331
9.06E-05,0.009612331
9.06E-05,0.009612331
9.07E-05,0.002149791
9.07E-05,0.005881061
9.07E-05,0.005881061
9.07E-05,0.009612331
9.07E-05,0.009612331
9.08E-05,0.013343601
9.08E-05,0.009612331
9.08E-05,0.009612331
9.08E-05,-0.001581479
9.08E-05,0.013343601
9.09E-05,-0.005312749
9.09E-05,0.002149791
9.09E-05,0.005881061
9.09E-05,-0.005312749
9.09E-05,0.017074871
9.10E-05,0.005881061
9.10E-05,0.005881061
9.10E-05,0.005881061
9.10E-05,0.002149791
9.10E-05,-0.001581479
9.11E-05,0.002149791
9.11E-05,0.013343601
9.11E-05,-0.005312749
9.11E-05,-0.005312749
9.11E-05,0.002149791
9.12E-05,0.005881061
9.12E-05,0.013343601
9.12E-05,0.002149791
9.12E-05,0.002149791
9.12E-05,0.002149791
9.13E-05,0.005881061
9.13E-05,-0.001581479
9.13E-05,0.002149791
9.13E-05,0.009612331
9.13E-05,0.002149791
9.14E-05,-0.001581479
9.14E-05,-0.001581479
9.14E-05,-0.001581479
9.14E-05,-0.001581479
9.14E-05,-0.016506559
9.15E-05,-0.012775289
9.15E-05,-0.009044019
9.15E-05,-0.005312749
9.15E-05,-0.009044019
9.15E-05,-0.001581479
9.16E-05,-0.005312749
9.16E-05,0.013343601
9.16E-05,-0.005312749
9.16E-05,0.002149791
9.16E-05,0.009612331
9.17E-05,0.002149791
9.17E-05,-0.009044019
9.17E-05,0.005881061
9.17E-05,0.005881061
9.17E-05,0.005881061
9.18E-05,-0.001581479
9.18E-05,0.005881061
9.18E-05,-0.001581479
9.18E-05,0.002149791
9.18E-05,-0.005312749
9.19E-05,0.005881061
9.19E-05,-0.005312749
9.19E-05,0.002149791
9.19E-05,-0.001581479
9.19E-05,-0.001581479
9.20E-05,0.005881061
9.20E-05,0.005881061
9.20E-05,0.002149791
9.20E-05,0.009612331
9.20E-05,-0.001581479
9.21E-05,0.002149791
9.21E-05,0.002149791
9.21E-05,-0.005312749
9.21E-05,0.005881061
9.21E-05,0.005881061
9.22E-05,-0.016506559
9.22E-05,0.005881061
9.22E-05,0.002149791
9.22E-05,-0.005312749
9.22E-05,0.005881061
9.23E-05,-0.005312749
9.23E-05,-0.016506559
9.23E-05,0.005881061
9.23E-05,-0.001581479
9.23E-05,-0.005312749
9.24E-05,-0.001581479
9.24E-05,0.009612331
9.24E-05,0.005881061
9.24E-05,0.002149791
9.24E-05,0.002149791
9.25E-05,0.002149791
9.25E-05,0.002149791
9.25E-05,0.002149791
9.25E-05,0.002149791
9.25E-05,-0.012775289
9.26E-05,-0.005312749
9.26E-05,-0.001581479
9.26E-05,-0.001581479
9.26E-05,0.002149791
9.26E-05,-0.009044019
9.27E-05,-0.012775289
9.27E-05,0.002149791
9.27E-05,0.005881061
9.27E-05,0.005881061
9.27E-05,-0.001581479
9.28E-05,-0.001581479
9.28E-05,0.005881061
9.28E-05,0.009612331
9.28E-05,-0.001581479
9.28E-05,0.002149791
9.29E-05,-0.005312749
9.29E-05,0.005881061
9.29E-05,-0.001581479
9.29E-05,0.002149791
9.29E-05,0.005881061
9.30E-05,0.005881061
9.30E-05,0.002149791
9.30E-05,0.005881061
9.30E-05,-0.001581479
9.30E-05,0.013343601
9.31E-05,-0.012775289
9.31E-05,0.009612331
9.31E-05,0.002149791
9.31E-05,-0.001581479
9.31E-05,0.002149791
9.32E-05,-0.005312749
9.32E-05,-0.001581479
9.32E-05,0.002149791
9.32E-05,-0.009044019
9.32E-05,0.002149791
9.33E-05,0.002149791
9.33E-05,-0.005312749
9.33E-05,-0.001581479
9.33E-05,0.009612331
9.33E-05,-0.001581479
9.34E-05,0.005881061
9.34E-05,-0.001581479
9.34E-05,-0.005312749
9.34E-05,-0.005312749
9.34E-05,0.002149791
9.35E-05,-0.001581479
9.35E-05,-0.005312749
9.35E-05,-0.005312749
9.35E-05,-0.001581479
9.35E-05,0.002149791
9.36E-05,0.002149791
9.36E-05,-0.001581479
9.36E-05,0.002149791
9.36E-05,0.002149791
9.36E-05,-0.001581479
9.37E-05,-0.005312749
9.37E-05,0.002149791
9.37E-05,-0.005312749
9.37E-05,-0.009044019
9.37E-05,-0.001581479
9.38E-05,-0.005312749
9.38E-05,0.002149791
9.38E-05,0.002149791
9.38E-05,-0.009044019
9.38E-05,-0.012775289
9.39E-05,-0.005312749
9.39E-05,-0.001581479
9.39E-05,0.002149791
9.39E-05,-0.005312749
9.39E-05,-0.012775289
9.40E-05,-0.009044019
9.40E-05,0.002149791
9.40E-05,-0.005312749
9.40E-05,-0.001581479
9.40E-05,0.002149791
9.41E-05,0.002149791
9.41E-05,0.009612331
9.41E-05,0.002149791
9.41E-05,-0.001581479
9.41E-05,-0.016506559
9.42E-05,-0.009044019
9.42E-05,0.002149791
9.42E-05,0.009612331
9.42E-05,0.005881061
9.42E-05,0.009612331
9.43E-05,-0.001581479
9.43E-05,0.002149791
9.43E-05,-0.009044019
9.43E-05,0.009612331
9.43E-05,0.002149791
9.44E-05,-0.009044019
9.44E-05,0.002149791
9.44E-05,0.005881061
9.44E-05,-0.005312749
9.44E-05,0.009612331
9.45E-05,0.002149791
9.45E-05,-0.005312749
9.45E-05,0.005881061
9.45E-05,0.005881061
9.45E-05,0.005881061
9.46E-05,-0.001581479
9.46E-05,0.002149791
9.46E-05,0.013343601
9.46E-05,0.002149791
9.46E-05,-0.009044019
9.47E-05,0.005881061
9.47E-05,0.013343601
9.47E-05,0.009612331
9.47E-05,0.013343601
9.47E-05,0.005881061
9.48E-05,0.013343601
9.48E-05,0.002149791
9.48E-05,0.005881061
9.48E-05,0.009612331
9.48E-05,0.005881061
9.49E-05,0.009612331
9.49E-05,0.002149791
9.49E-05,0.002149791
9.49E-05,0.002149791
9.49E-05,0.009612331
9.50E-05,0.002149791
9.50E-05,-0.001581479
9.50E-05,-0.001581479
9.50E-05,-0.009044019
9.50E-05,0.005881061
9.51E-05,-0.005312749
9.51E-05,-0.001581479
9.51E-05,-0.001581479
9.51E-05,-0.001581479
9.51E-05,-0.005312749
9.52E-05,-0.001581479
9.52E-05,-0.005312749
9.52E-05,-0.001581479
9.52E-05,0.002149791
9.52E-05,-0.005312749
9.53E-05,-0.001581479
9.53E-05,0.005881061
9.53E-05,-0.001581479
9.53E-05,-0.001581479
9.53E-05,0.002149791
9.54E-05,0.002149791
9.54E-05,0.002149791
9.54E-05,0.005881061
9.54E-05,0.017074871
9.54E-05,0.002149791
9.55E-05,0.013343601
9.55E-05,0.005881061
9.55E-05,0.009612331
9.55E-05,0.013343601
9.55E-05,0.005881061
9.56E-05,0.013343601
9.56E-05,-0.009044019
9.56E-05,-0.005312749
9.56E-05,0.005881061
9.56E-05,-0.001581479
9.57E-05,0.002149791
9.57E-05,0.013343601
9.57E-05,0.002149791
9.57E-05,0.005881061
9.57E-05,0.002149791
9.58E-05,0.002149791
9.58E-05,-0.001581479
9.58E-05,0.009612331
9.58E-05,0.002149791
9.58E-05,0.005881061
9.59E-05,0.013343601
9.59E-05,-0.005312749
9.59E-05,-0.001581479
9.59E-05,0.002149791
9.59E-05,0.002149791
9.60E-05,0.002149791
9.60E-05,0.002149791
9.60E-05,0.002149791
9.60E-05,-0.001581479
9.60E-05,0.002149791
9.61E-05,-0.001581479
9.61E-05,-0.001581479
9.61E-05,0.009612331
9.61E-05,0.002149791
9.61E-05,0.002149791
9.62E-05,0.002149791
9.62E-05,0.002149791
9.62E-05,0.009612331
9.62E-05,-0.005312749
9.62E-05,-0.009044019
9.63E-05,0.009612331
9.63E-05,0.002149791
9.63E-05,0.005881061
9.63E-05,0.005881061
9.63E-05,0.002149791
9.64E-05,0.002149791
9.64E-05,0.009612331
9.64E-05,-0.009044019
9.64E-05,0.002149791
9.64E-05,0.002149791
9.65E-05,-0.001581479
9.65E-05,0.005881061
9.65E-05,0.017074871
9.65E-05,-0.001581479
9.65E-05,0.002149791
9.66E-05,0.009612331
9.66E-05,-0.005312749
9.66E-05,0.002149791
9.66E-05,-0.001581479
9.66E-05,0.005881061
9.67E-05,0.002149791
9.67E-05,0.002149791
9.67E-05,0.005881061
9.67E-05,-0.001581479
9.67E-05,-0.009044019
9.68E-05,-0.001581479
9.68E-05,0.002149791
9.68E-05,-0.001581479
9.68E-05,0.005881061
9.68E-05,-0.001581479
9.69E-05,0.002149791
9.69E-05,-0.001581479
9.69E-05,0.002149791
9.69E-05,-0.009044019
9.69E-05,0.005881061
9.70E-05,0.009612331
9.70E-05,0.017074871
9.70E-05,0.002149791
9.70E-05,0.005881061
9.70E-05,0.005881061
9.71E-05,0.009612331
9.71E-05,0.005881061
9.71E-05,-0.001581479
9.71E-05,0.002149791
9.71E-05,-0.005312749
9.72E-05,0.005881061
9.72E-05,0.005881061
9.72E-05,0.002149791
9.72E-05,0.002149791
9.72E-05,0.013343601
9.73E-05,0.002149791
9.73E-05,0.002149791
9.73E-05,0.005881061
9.73E-05,-0.001581479
9.73E-05,0.002149791
9.74E-05,0.002149791
9.74E-05,0.005881061
9.74E-05,-0.009044019
9.74E-05,0.002149791
9.74E-05,-0.001581479
9.75E-05,-0.001581479
9.75E-05,-0.001581479
9.75E-05,-0.009044019
9.75E-05,0.005881061
9.75E-05,0.009612331
9.76E-05,-0.001581479
9.76E-05,0.009612331
9.76E-05,0.013343601
9.76E-05,0.009612331
9.76E-05,0.002149791
9.77E-05,0.002149791
9.77E-05,0.017074871
9.77E-05,0.017074871
9.77E-05,0.009612331
9.77E-05,-0.001581479
9.78E-05,0.013343601
9.78E-05,0.013343601
9.78E-05,0.009612331
9.78E-05,0.005881061
9.78E-05,0.002149791
9.79E-05,0.002149791
9.79E-05,0.005881061
9.79E-05,0.002149791
9.79E-05,0.002149791
9.79E-05,0.009612331
9.80E-05,0.013343601
9.80E-05,0.013343601
9.80E-05,0.005881061
9.80E-05,0.002149791
9.80E-05,-0.001581479
9.81E-05,0.005881061
9.81E-05,-0.005312749
9.81E-05,0.005881061
9.81E-05,0.002149791
9.81E-05,0.002149791
9.82E-05,0.002149791
9.82E-05,-0.001581479
9.82E-05,0.009612331
9.82E-05,0.005881061
9.82E-05,0.002149791
9.83E-05,0.013343601
9.83E-05,0.005881061
9.83E-05,0.005881061
9.83E-05,0.002149791
9.83E-05,-0.001581479
9.84E-05,0.009612331
9.84E-05,0.002149791
9.84E-05,0.017074871
9.84E-05,0.013343601
9.84E-05,0.002149791
9.85E-05,0.002149791
9.85E-05,-0.001581479
9.85E-05,0.002149791
9.85E-05,0.005881061
9.85E-05,0.009612331
9.86E-05,0.009612331
9.86E-05,0.009612331
9.86E-05,-0.001581479
9.86E-05,0.017074871
9.86E-05,0.017074871
9.87E-05,0.002149791
9.87E-05,-0.001581479
9.87E-05,0.013343601
9.87E-05,-0.001581479
9.87E-05,0.009612331
9.88E-05,0.020806141
9.88E-05,0.002149791
9.88E-05,0.005881061
9.88E-05,0.002149791
9.88E-05,0.002149791
9.89E-05,0.005881061
9.89E-05,0.002149791
9.89E-05,0.017074871
9.89E-05,0.009612331
9.89E-05,0.005881061
9.90E-05,0.005881061
9.90E-05,-0.009044019
9.90E-05,-0.001581479
9.90E-05,0.013343601
9.90E-05,-0.005312749
9.91E-05,0.013343601
9.91E-05,0.013343601
9.91E-05,0.009612331
9.91E-05,0.009612331
9.91E-05,0.005881061
9.92E-05,0.005881061
9.92E-05,0.009612331
9.92E-05,0.009612331
9.92E-05,0.005881061
9.92E-05,0.002149791
9.93E-05,0.002149791
9.93E-05,-0.001581479
9.93E-05,0.024537411
9.93E-05,0.002149791
9.93E-05,0.005881061
9.94E-05,0.005881061
9.94E-05,-0.009044019
9.94E-05,0.005881061
9.94E-05,-0.005312749
9.94E-05,0.017074871
9.95E-05,0.002149791
9.95E-05,-0.005312749
9.95E-05,0.013343601
9.95E-05,0.005881061
9.95E-05,0.002149791
9.96E-05,0.009612331
9.96E-05,0.005881061
9.96E-05,0.013343601
9.96E-05,0.009612331
9.96E-05,0.002149791
9.97E-05,-0.005312749
9.97E-05,0.002149791
9.97E-05,0.002149791
9.97E-05,0.005881061
9.97E-05,0.002149791
9.98E-05,-0.001581479
9.98E-05,0.002149791
9.98E-05,0.013343601
9.98E-05,0.002149791
9.98E-05,0.002149791
9.99E-05,0.013343601
9.99E-05,0.005881061
9.99E-05,-0.001581479
9.99E-05,-0.005312749
9.99E-05,-0.001581479
1.00E-04,-0.009044019
1.00E-04,0.005881061
0.000100006,0.002149791
0.000100026,-0.001581479
0.000100046,0.002149791
0.000100066,-0.001581479
0.000100086,-0.005312749
0.000100106,-0.009044019
0.000100126,-0.009044019
0.000100146,0.005881061
0.000100166,-0.005312749
0.000100186,-0.005312749
0.000100206,-0.001581479
0.000100226,0.009612331
0.000100246,-0.001581479
0.000100266,0.002149791
0.000100286,0.005881061
0.000100306,-0.001581479
0.000100326,0.009612331
0.000100346,0.002149791
0.000100366,-0.001581479
0.000100386,0.017074871
0.000100406,0.020806141
0.000100426,-0.005312749
0.000100446,0.005881061
0.000100466,0.005881061
0.000100486,0.005881061
0.000100506,0.013343601
0.000100526,-0.001581479
0.000100546,0.002149791
0.000100566,0.005881061
0.000100586,0.009612331
0.000100606,0.005881061
0.000100626,0.009612331
0.000100646,0.017074871
0.000100666,0.013343601
0.000100686,0.005881061
0.000100706,0.002149791
0.000100726,-0.001581479
0.000100746,0.028268681
0.000100766,0.009612331
0.000100786,0.009612331
0.000100806,0.005881061
0.000100826,0.005881061
0.000100846,0.005881061
0.000100866,0.013343601
0.000100886,0.005881061
0.000100906,0.009612331
0.000100926,0.002149791
0.000100946,0.013343601
0.000100966,0.005881061
0.000100986,0.009612331
0.000101006,0.009612331
0.000101026,0.005881061
0.000101046,0.009612331
0.000101066,0.009612331
0.000101086,0.005881061
0.000101106,0.013343601
0.000101126,0.009612331
0.000101146,0.002149791
0.000101166,0.009612331
0.000101186,0.002149791
0.000101206,-0.001581479
0.000101226,0.005881061
0.000101246,-0.001581479
0.000101266,0.009612331
0.000101286,0.009612331
0.000101306,0.017074871
0.000101326,0.002149791
0.000101346,0.009612331
0.000101366,0.005881061
0.000101386,0.002149791
0.000101406,0.005881061
0.000101426,-0.001581479
0.000101446,0.002149791
0.000101466,0.002149791
0.000101486,0.002149791
0.000101506,-0.009044019
0.000101526,0.002149791
0.000101546,0.009612331
0.000101566,0.005881061
0.000101586,0.002149791
0.000101606,0.005881061
0.000101626,0.009612331
0.000101646,0.002149791
0.000101666,0.002149791
0.000101686,-0.009044019
0.000101706,0.005881061
0.000101726,-0.005312749
0.000101746,0.009612331
0.000101766,0.005881061
0.000101786,-0.001581479
0.000101806,0.002149791
0.000101826,-0.001581479
0.000101846,-0.001581479
0.000101866,0.002149791
0.000101886,0.009612331
0.000101906,-0.001581479
0.000101926,0.002149791
0.000101946,-0.001581479
0.000101966,0.009612331
0.000101986,0.013343601
0.000102006,0.005881061
0.000102026,0.002149791
0.000102046,0.002149791
0.000102066,0.017074871
0.000102086,0.009612331
0.000102106,0.013343601
0.000102126,0.005881061
0.000102146,0.009612331
0.000102166,0.002149791
0.000102186,-0.005312749
0.000102206,0.005881061
0.000102226,0.009612331
0.000102246,0.005881061
0.000102266,0.002149791
0.000102286,-0.001581479
0.000102306,-0.001581479
0.000102326,0.002149791
0.000102346,0.005881061
0.000102366,0.002149791
0.000102386,0.002149791
0.000102406,0.005881061
0.000102426,0.002149791
0.000102446,0.002149791
0.000102466,0.005881061
0.000102486,0.009612331
0.000102506,0.005881061
0.000102526,-0.001581479
0.000102546,0.013343601
0.000102566,0.002149791
0.000102586,0.009612331
0.000102606,0.005881061
0.000102626,0.013343601
0.000102646,0.009612331
0.000102666,0.017074871
0.000102686,0.002149791
0.000102706,0.009612331
0.000102726,0.009612331
0.000102746,0.009612331
0.000102766,0.002149791
0.000102786,0.009612331
0.000102806,0.017074871
0.000102826,0.002149791
0.000102846,0.009612331
0.000102866,0.002149791
0.000102886,0.005881061
0.000102906,0.005881061
0.000102926,0.005881061
0.000102946,0.002149791
0.000102966,0.002149791
0.000102986,-0.005312749
0.000103006,0.009612331
0.000103026,0.005881061
0.000103046,0.009612331
0.000103066,0.009612331
0.000103086,0.002149791
0.000103106,0.009612331
0.000103126,0.005881061
0.000103146,0.013343601
0.000103166,0.009612331
0.000103186,0.017074871
0.000103206,0.005881061
0.000103226,0.009612331
0.000103246,0.009612331
0.000103266,0.005881061
0.000103286,0.013343601
0.000103306,0.005881061
0.000103326,-0.016506559
0.000103346,-0.001581479
0.000103366,-0.001581479
0.000103386,-0.005312749
0.000103406,-0.005312749
0.000103426,-0.001581479
0.000103446,0.005881061
0.000103466,-0.005312749
0.000103486,0.005881061
0.000103506,-0.001581479
0.000103526,0.002149791
0.000103546,0.002149791
0.000103566,-0.009044019
0.000103586,-0.001581479
0.000103606,0.002149791
0.000103626,0.002149791
0.000103646,-0.001581479
0.000103666,0.002149791
0.000103686,-0.005312749
0.000103706,-0.001581479
0.000103726,0.009612331
0.000103746,0.002149791
0.000103766,0.002149791
0.000103786,0.005881061
0.000103806,0.005881061
0.000103826,0.002149791
0.000103846,0.009612331
0.000103866,-0.005312749
0.000103886,-0.009044019
0.000103906,0.005881061
0.000103926,-0.001581479
0.000103946,0.002149791
0.000103966,0.002149791
0.000103986,0.005881061
0.000104006,0.002149791
0.000104026,0.005881061
0.000104046,0.002149791
0.000104066,0.009612331
0.000104086,0.002149791
0.000104106,0.009612331
0.000104126,0.002149791
0.000104146,-0.001581479
0.000104166,-0.001581479
0.000104186,0.009612331
0.000104206,0.013343601
0.000104226,0.005881061
0.000104246,-0.001581479
0.000104266,0.002149791
0.000104286,0.009612331
0.000104306,0.009612331
0.000104326,0.005881061
0.000104346,0.002149791
0.000104366,0.002149791
0.000104386,0.002149791
0.000104406,0.002149791
0.000104426,-0.001581479
0.000104446,-0.001581479
0.000104466,0.005881061
0.000104486,0.002149791
0.000104506,0.005881061
0.000104526,0.009612331
0.000104546,-0.001581479
0.000104566,-0.001581479
0.000104586,0.002149791
0.000104606,0.009612331
0.000104626,0.002149791
0.000104646,0.005881061
0.000104666,-0.001581479
0.000104686,0.009612331
0.000104706,-0.001581479
0.000104726,0.002149791
0.000104746,0.009612331
0.000104766,0.002149791
0.000104786,0.002149791
0.000104806,-0.005312749
0.000104826,0.005881061
0.000104846,0.013343601
0.000104866,-0.009044019
0.000104886,0.009612331
0.000104906,-0.001581479
0.000104926,0.009612331
0.000104946,0.009612331
0.000104966,0.009612331
0.000104986,-0.001581479
0.000105006,-0.001581479
0.000105026,0.005881061
0.000105046,0.017074871
0.000105066,0.002149791
0.000105086,0.002149791
0.000105106,0.002149791
0.000105126,0.002149791
0.000105146,-0.005312749
0.000105166,0.009612331
0.000105186,0.005881061
0.000105206,0.002149791
0.000105226,0.002149791
0.000105246,0.013343601
0.000105266,-0.005312749
0.000105286,-0.005312749
0.000105306,0.005881061
0.000105326,-0.001581479
0.000105346,0.013343601
0.000105366,0.013343601
0.000105386,0.009612331
0.000105406,0.009612331
0.000105426,0.002149791
0.000105446,0.009612331
0.000105466,0.002149791
0.000105486,0.002149791
0.000105506,0.009612331
0.000105526,0.005881061
0.000105546,0.009612331
0.000105566,0.002149791
0.000105586,-0.009044019
0.000105606,-0.001581479
0.000105626,0.017074871
0.000105646,0.005881061
0.000105666,0.002149791
0.000105686,0.013343601
0.000105706,0.005881061
0.000105726,0.005881061
0.000105746,0.005881061
0.000105766,0.002149791
0.000105786,0.005881061
0.000105806,0.002149791
0.000105826,0.009612331
0.000105846,-0.012775289
0.000105866,-0.005312749
0.000105886,0.013343601
0.000105906,-0.001581479
0.000105926,0.005881061
0.000105946,0.005881061
0.000105966,0.005881061
0.000105986,0.005881061
0.000106006,0.009612331
0.000106026,0.002149791
0.000106046,0.002149791
0.000106066,0.002149791
0.000106086,-0.001581479
0.000106106,-0.001581479
0.000106126,-0.001581479
0.000106146,-0.001581479
0.000106166,0.002149791
0.000106186,0.002149791
0.000106206,0.013343601
0.000106226,0.002149791
0.000106246,0.005881061
0.000106266,-0.001581479
0.000106286,-0.005312749
0.000106306,0.005881061
0.000106326,0.005881061
0.000106346,0.005881061
0.000106366,0.002149791
0.000106386,-0.005312749
0.000106406,0.002149791
0.000106426,0.009612331
0.000106446,0.009612331
0.000106466,0.005881061
0.000106486,0.002149791
0.000106506,0.005881061
0.000106526,0.005881061
0.000106546,0.013343601
0.000106566,0.013343601
0.000106586,0.009612331
0.000106606,0.002149791
0.000106626,-0.005312749
0.000106646,0.013343601
0.000106666,0.002149791
0.000106686,0.009612331
0.000106706,0.017074871
0.000106726,0.002149791
0.000106746,0.002149791
0.000106766,0.009612331
0.000106786,0.005881061
0.000106806,-0.005312749
0.000106826,0.002149791
0.000106846,-0.001581479
0.000106866,-0.001581479
0.000106886,0.005881061
0.000106906,0.009612331
0.000106926,0.002149791
0.000106946,0.005881061
0.000106966,0.002149791
0.000106986,0.005881061
0.000107006,0.002149791
0.000107026,0.005881061
0.000107046,0.002149791
0.000107066,0.009612331
0.000107086,-0.001581479
0.000107106,0.009612331
0.000107126,0.002149791
0.000107146,0.002149791
0.000107166,0.017074871
0.000107186,0.002149791
0.000107206,0.005881061
0.000107226,0.002149791
0.000107246,0.002149791
0.000107266,0.005881061
0.000107286,0.005881061
0.000107306,0.005881061
0.000107326,0.002149791
0.000107346,0.009612331
0.000107366,-0.001581479
0.000107386,0.002149791
0.000107406,-0.005312749
0.000107426,0.005881061
0.000107446,0.002149791
0.000107466,0.009612331
0.000107486,0.002149791
0.000107506,0.005881061
0.000107526,0.005881061
0.000107546,0.005881061
0.000107566,0.013343601
0.000107586,0.005881061
0.000107606,-0.001581479
0.000107626,-0.001581479
0.000107646,0.009612331
0.000107666,-0.001581479
0.000107686,0.009612331
0.000107706,0.002149791
0.000107726,-0.001581479
0.000107746,0.002149791
0.000107766,-0.001581479
0.000107786,0.009612331
0.000107806,-0.001581479
0.000107826,0.009612331
0.000107846,-0.001581479
0.000107866,0.002149791
0.000107886,-0.001581479
0.000107906,0.005881061
0.000107926,0.009612331
0.000107946,0.002149791
0.000107966,0.002149791
0.000107986,-0.009044019
0.000108006,0.013343601
0.000108026,0.002149791
0.000108046,0.013343601
0.000108066,0.002149791
0.000108086,-0.001581479
0.000108106,-0.005312749
0.000108126,-0.001581479
0.000108146,0.013343601
0.000108166,0.009612331
0.000108186,-0.012775289
0.000108206,0.005881061
0.000108226,0.005881061
0.000108246,0.005881061
0.000108266,-0.001581479
0.000108286,0.013343601
0.000108306,0.005881061
0.000108326,0.002149791
0.000108346,-0.001581479
0.000108366,-0.012775289
0.000108386,0.024537411
0.000108406,-0.001581479
0.000108426,0.013343601
0.000108446,0.009612331
0.000108466,-0.005312749
0.000108486,0.002149791
0.000108506,-0.005312749
0.000108526,0.002149791
0.000108546,0.013343601
0.000108566,0.017074871
0.000108586,-0.005312749
0.000108606,0.002149791
0.000108626,0.009612331
0.000108646,0.005881061
0.000108666,0.013343601
0.000108686,0.002149791
0.000108706,0.005881061
0.000108726,-0.001581479
0.000108746,0.002149791
0.000108766,-0.005312749
0.000108786,0.002149791
0.000108806,-0.012775289
0.000108826,0.009612331
0.000108846,0.002149791
0.000108866,0.005881061
0.000108886,0.009612331
0.000108906,0.013343601
0.000108926,0.002149791
0.000108946,0.002149791
0.000108966,0.009612331
0.000108986,0.002149791
0.000109006,0.020806141
0.000109026,0.002149791
0.000109046,0.005881061
0.000109066,0.013343601
0.000109086,0.013343601
0.000109106,0.002149791
0.000109126,0.002149791
0.000109146,0.009612331
0.000109166,0.002149791
0.000109186,0.002149791
0.000109206,0.002149791
0.000109226,0.002149791
0.000109246,0.002149791
0.000109266,0.005881061
0.000109286,0.013343601
0.000109306,0.005881061
0.000109326,0.009612331
0.000109346,0.005881061
0.000109366,0.002149791
0.000109386,-0.001581479
0.000109406,0.009612331
0.000109426,0.005881061
0.000109446,0.002149791
0.000109466,0.009612331
0.000109486,0.009612331
0.000109506,0.002149791
0.000109526,0.009612331
0.000109546,0.002149791
0.000109566,-0.001581479
0.000109586,0.017074871
0.000109606,0.005881061
0.000109626,0.017074871
0.000109646,0.002149791
0.000109666,0.005881061
0.000109686,0.005881061
0.000109706,0.005881061
0.000109726,0.005881061
0.000109746,0.002149791
0.000109766,0.002149791
0.000109786,0.009612331
0.000109806,0.009612331
0.000109826,0.005881061
0.000109846,0.005881061
0.000109866,0.005881061
0.000109886,0.013343601
0.000109906,0.009612331
0.000109926,0.009612331
0.000109946,0.020806141
0.000109966,0.013343601
0.000109986,0.013343601
0.000110006,0.005881061
0.000110026,0.009612331
0.000110046,0.005881061
0.000110066,0.005881061
0.000110086,0.005881061
0.000110106,0.005881061
0.000110126,0.009612331
0.000110146,0.005881061
0.000110166,0.009612331
0.000110186,0.017074871
0.000110206,0.002149791
0.000110226,0.024537411
0.000110246,-0.001581479
0.000110266,0.005881061
0.000110286,0.009612331
0.000110306,0.009612331
0.000110326,0.005881061
0.000110346,0.002149791
0.000110366,0.013343601
0.000110386,0.013343601
0.000110406,-0.009044019
0.000110426,0.005881061
0.000110446,0.013343601
0.000110466,0.013343601
0.000110486,0.002149791
0.000110506,0.002149791
0.000110526,0.002149791
0.000110546,0.009612331
0.000110566,0.002149791
0.000110586,0.005881061
0.000110606,0.009612331
0.000110626,0.009612331
0.000110646,0.009612331
0.000110666,0.005881061
0.000110686,0.005881061
0.000110706,0.005881061
0.000110726,0.013343601
0.000110746,0.009612331
0.000110766,-0.001581479
0.000110786,0.002149791
0.000110806,0.005881061
0.000110826,0.005881061
0.000110846,0.005881061
0.000110866,0.002149791
0.000110886,-0.009044019
0.000110906,0.009612331
0.000110926,0.005881061
0.000110946,0.009612331
0.000110966,-0.001581479
0.000110986,0.017074871
0.000111006,0.009612331
0.000111026,0.005881061
0.000111046,0.002149791
0.000111066,0.002149791
0.000111086,0.005881061
0.000111106,-0.009044019
0.000111126,0.005881061
0.000111146,0.005881061
0.000111166,-0.001581479
0.000111186,0.002149791
0.000111206,-0.001581479
0.000111226,-0.001581479
0.000111246,0.009612331
0.000111266,0.002149791
0.000111286,0.005881061
0.000111306,0.005881061
0.000111326,0.009612331
0.000111346,-0.001581479
0.000111366,0.002149791
0.000111386,0.002149791
0.000111406,-0.001581479
0.000111426,-0.001581479
0.000111446,-0.001581479
0.000111466,0.002149791
0.000111486,0.005881061
0.000111506,0.009612331
0.000111526,0.005881061
0.000111546,-0.005312749
0.000111566,-0.001581479
0.000111586,0.002149791
0.000111606,-0.005312749
0.000111626,0.005881061
0.000111646,0.005881061
0.000111666,0.005881061
0.000111686,0.002149791
0.000111706,0.013343601
0.000111726,0.005881061
0.000111746,0.005881061
0.000111766,-0.001581479
0.000111786,0.009612331
0.000111806,0.002149791
0.000111826,0.005881061
0.000111846,-0.001581479
0.000111866,0.009612331
0.000111886,0.002149791
0.000111906,0.002149791
0.000111926,0.002149791
0.000111946,0.002149791
0.000111966,0.002149791
0.000111986,0.002149791
0.000112006,0.005881061
0.000112026,0.005881061
0.000112046,0.002149791
0.000112066,0.002149791
0.000112086,0.002149791
0.000112106,0.002149791
0.000112126,-0.005312749
0.000112146,0.002149791
0.000112166,0.005881061
0.000112186,0.005881061
0.000112206,0.005881061
0.000112226,0.013343601
0.000112246,0.013343601
0.000112266,-0.001581479
0.000112286,0.002149791
0.000112306,-0.001581479
0.000112326,-0.001581479
0.000112346,0.005881061
0.000112366,0.002149791
0.000112386,0.002149791
0.000112406,0.017074871
0.000112426,0.009612331
0.000112446,-0.001581479
0.000112466,0.009612331
0.000112486,0.005881061
0.000112506,-0.005312749
0.000112526,0.005881061
0.000112546,0.005881061
0.000112566,-0.009044019
0.000112586,0.002149791
0.000112606,-0.001581479
0.000112626,0.002149791
0.000112646,0.002149791
0.000112666,-0.009044019
0.000112686,-0.005312749
0.000112706,0.002149791
0.000112726,0.002149791
0.000112746,0.005881061
0.000112766,0.009612331
0.000112786,0.013343601
0.000112806,0.009612331
0.000112826,0.002149791
0.000112846,0.005881061
0.000112866,0.002149791
0.000112886,0.002149791
0.000112906,0.002149791
0.000112926,0.002149791
0.000112946,0.005881061
0.000112966,0.009612331
0.000112986,0.002149791
0.000113006,0.009612331
0.000113026,0.002149791
0.000113046,0.005881061
0.000113066,-0.001581479
0.000113086,-0.001581479
0.000113106,-0.001581479
0.000113126,0.002149791
0.000113146,0.009612331
0.000113166,0.009612331
0.000113186,0.005881061
0.000113206,0.005881061
0.000113226,0.002149791
0.000113246,0.009612331
0.000113266,0.005881061
0.000113286,-0.005312749
0.000113306,0.002149791
0.000113326,0.002149791
0.000113346,-0.012775289
0.000113366,0.009612331
0.000113386,-0.005312749
0.000113406,-0.001581479
0.000113426,0.013343601
0.000113446,-0.009044019
0.000113466,0.013343601
0.000113486,-0.001581479
0.000113506,0.002149791
0.000113526,-0.009044019
0.000113546,-0.005312749
0.000113566,-0.005312749
0.000113586,-0.009044019
0.000113606,0.002149791
0.000113626,0.009612331
0.000113646,0.002149791
0.000113666,0.002149791
0.000113686,0.002149791
0.000113706,-0.001581479
0.000113726,0.002149791
0.000113746,-0.001581479
0.000113766,0.002149791
0.000113786,0.009612331
0.000113806,0.002149791
0.000113826,0.002149791
0.000113846,0.002149791
0.000113866,0.005881061
0.000113886,-0.001581479
0.000113906,-0.001581479
0.000113926,0.002149791
0.000113946,0.002149791
0.000113966,0.005881061
0.000113986,0.002149791
0.000114006,0.005881061
0.000114026,-0.001581479
0.000114046,-0.009044019
0.000114066,0.009612331
0.000114086,-0.001581479
0.000114106,0.002149791
0.000114126,-0.009044019
0.000114146,-0.005312749
0.000114166,0.009612331
0.000114186,0.005881061
0.000114206,-0.001581479
0.000114226,-0.001581479
0.000114246,0.002149791
0.000114266,-0.001581479
0.000114286,-0.009044019
0.000114306,0.009612331
0.000114326,0.005881061
0.000114346,0.005881061
0.000114366,0.017074871
0.000114386,0.005881061
0.000114406,0.002149791
0.000114426,-0.001581479
0.000114446,-0.005312749
0.000114466,-0.001581479
0.000114486,-0.001581479
0.000114506,0.009612331
0.000114526,0.002149791
0.000114546,-0.005312749
0.000114566,0.005881061
0.000114586,0.009612331
0.000114606,0.002149791
0.000114626,0.005881061
0.000114646,0.005881061
0.000114666,-0.001581479
0.000114686,0.002149791
0.000114706,0.009612331
0.000114726,0.002149791
0.000114746,0.002149791
0.000114766,0.002149791
0.000114786,0.002149791
0.000114806,0.002149791
0.000114826,0.005881061
0.000114846,-0.012775289
0.000114866,-0.001581479
0.000114886,-0.009044019
0.000114906,0.002149791
0.000114926,0.002149791
0.000114946,0.002149791
0.000114966,0.002149791
0.000114986,0.013343601
0.000115006,0.009612331
0.000115026,0.002149791
0.000115046,-0.009044019
0.000115066,-0.001581479
0.000115086,0.002149791
0.000115106,0.002149791
0.000115126,-0.001581479
0.000115146,0.002149791
0.000115166,0.002149791
0.000115186,-0.001581479
0.000115206,0.002149791
0.000115226,0.009612331
0.000115246,0.005881061
0.000115266,-0.001581479
0.000115286,0.017074871
0.000115306,-0.001581479
0.000115326,-0.009044019
0.000115346,0.002149791
0.000115366,-0.001581479
0.000115386,0.005881061
0.000115406,-0.005312749
0.000115426,-0.001581479
0.000115446,0.009612331
0.000115466,0.005881061
0.000115486,-0.001581479
0.000115506,-0.001581479
0.000115526,-0.005312749
0.000115546,-0.001581479
0.000115566,0.002149791
0.000115586,-0.005312749
0.000115606,0.002149791
0.000115626,0.002149791
0.000115646,0.002149791
0.000115666,-0.005312749
0.000115686,0.005881061
0.000115706,0.002149791
0.000115726,-0.001581479
0.000115746,0.009612331
0.000115766,0.009612331
0.000115786,-0.009044019
0.000115806,0.005881061
0.000115826,-0.009044019
0.000115846,-0.001581479
0.000115866,0.005881061
0.000115886,-0.001581479
0.000115906,0.002149791
0.000115926,0.005881061
0.000115946,0.002149791
0.000115966,0.002149791
0.000115986,0.002149791
0.000116006,0.002149791
0.000116026,-0.001581479
0.000116046,0.009612331
0.000116066,-0.009044019
0.000116086,0.009612331
0.000116106,-0.012775289
0.000116126,-0.001581479
0.000116146,0.002149791
0.000116166,-0.009044019
0.000116186,0.002149791
0.000116206,0.002149791
0.000116226,-0.016506559
0.000116246,-0.016506559
0.000116266,0.002149791
0.000116286,0.005881061
0.000116306,0.009612331
0.000116326,-0.001581479
0.000116346,0.002149791
0.000116366,0.005881061
0.000116386,-0.005312749
0.000116406,0.002149791
0.000116426,-0.005312749
0.000116446,-0.001581479
0.000116466,-0.012775289
0.000116486,-0.005312749
0.000116506,-0.009044019
0.000116526,0.002149791
0.000116546,-0.001581479
0.000116566,0.002149791
0.000116586,0.002149791
0.000116606,0.002149791
0.000116626,-0.001581479
0.000116646,0.009612331
0.000116666,-0.005312749
0.000116686,0.005881061
0.000116706,-0.009044019
0.000116726,0.017074871
0.000116746,0.002149791
0.000116766,0.002149791
0.000116786,0.002149791
0.000116806,0.005881061
0.000116826,0.005881061
0.000116846,0.013343601
0.000116866,-0.005312749
0.000116886,0.017074871
0.000116906,0.009612331
0.000116926,0.002149791
0.000116946,-0.001581479
0.000116966,-0.005312749
0.000116986,-0.001581479
0.000117006,0.009612331
0.000117026,0.009612331
0.000117046,-0.001581479
0.000117066,0.002149791
0.000117086,0.002149791
0.000117106,-0.001581479
0.000117126,0.005881061
0.000117146,-0.001581479
0.000117166,-0.009044019
0.000117186,-0.001581479
0.000117206,0.009612331
0.000117226,0.013343601
0.000117246,-0.001581479
0.000117266,0.009612331
0.000117286,0.009612331
0.000117306,0.002149791
0.000117326,0.017074871
0.000117346,0.005881061
0.000117366,0.002149791
0.000117386,0.009612331
0.000117406,0.013343601
0.000117426,0.017074871
0.000117446,0.005881061
0.000117466,0.002149791
0.000117486,0.002149791
0.000117506,0.002149791
0.000117526,0.005881061
0.000117546,0.009612331
0.000117566,0.005881061
0.000117586,0.002149791
0.000117606,0.013343601
0.000117626,0.002149791
0.000117646,0.005881061
0.000117666,0.002149791
0.000117686,0.002149791
0.000117706,0.002149791
0.000117726,-0.001581479
0.000117746,-0.012775289
0.000117766,0.002149791
0.000117786,0.002149791
0.000117806,0.002149791
0.000117826,0.002149791
0.000117846,-0.001581479
0.000117866,-0.001581479
0.000117886,-0.009044019
0.000117906,0.009612331
0.000117926,-0.005312749
0.000117946,0.005881061
0.000117966,0.002149791
0.000117986,0.005881061
0.000118006,-0.001581479
0.000118026,0.002149791
0.000118046,-0.005312749
0.000118066,0.002149791
0.000118086,0.005881061
0.000118106,-0.001581479
0.000118126,0.005881061
0.000118146,-0.009044019
0.000118166,0.002149791
0.000118186,0.002149791
0.000118206,0.002149791
0.000118226,0.009612331
0.000118246,0.002149791
0.000118266,-0.005312749
0.000118286,0.005881061
0.000118306,0.005881061
0.000118326,0.002149791
0.000118346,-0.001581479
0.000118366,0.002149791
0.000118386,0.002149791
0.000118406,0.002149791
0.000118426,0.005881061
0.000118446,0.002149791
0.000118466,0.005881061
0.000118486,-0.005312749
0.000118506,0.009612331
0.000118526,0.002149791
0.000118546,0.002149791
0.000118566,0.002149791
0.000118586,0.009612331
0.000118606,0.017074871
0.000118626,0.002149791
0.000118646,-0.009044019
0.000118666,0.002149791
0.000118686,0.017074871
0.000118706,0.009612331
0.000118726,0.002149791
0.000118746,0.013343601
0.000118766,0.002149791
0.000118786,0.002149791
0.000118806,0.009612331
0.000118826,-0.001581479
0.000118846,-0.005312749
0.000118866,-0.001581479
0.000118886,0.009612331
0.000118906,-0.005312749
0.000118926,0.002149791
0.000118946,0.013343601
0.000118966,0.002149791
0.000118986,0.005881061
0.000119006,0.009612331
0.000119026,0.009612331
0.000119046,0.002149791
0.000119066,0.002149791
0.000119086,0.005881061
0.000119106,0.002149791
0.000119126,0.005881061
0.000119146,0.005881061
0.000119166,0.002149791
0.000119186,0.002149791
0.000119206,0.005881061
0.000119226,0.009612331
0.000119246,0.002149791
0.000119266,0.002149791
0.000119286,0.013343601
0.000119306,0.013343601
0.000119326,0.002149791
0.000119346,0.002149791
0.000119366,0.005881061
0.000119386,0.002149791
0.000119406,0.002149791
0.000119426,0.009612331
0.000119446,0.009612331
0.000119466,0.002149791
0.000119486,0.013343601
0.000119506,0.009612331
0.000119526,-0.001581479
0.000119546,-0.005312749
0.000119566,0.002149791
0.000119586,0.002149791
0.000119606,0.002149791
0.000119626,0.009612331
0.000119646,-0.001581479
0.000119666,0.002149791
0.000119686,0.002149791
0.000119706,-0.001581479
0.000119726,-0.005312749
0.000119746,-0.001581479
0.000119766,-0.005312749
0.000119786,0.002149791
0.000119806,0.002149791
0.000119826,0.002149791
0.000119846,-0.005312749
0.000119866,0.002149791
0.000119886,-0.005312749
0.000119906,-0.009044019
0.000119926,0.017074871
0.000119946,0.005881061
0.000119966,0.002149791
0.000119986,-0.001581479
0.000120006,0.002149791
0.000120026,-0.001581479
0.000120046,-0.005312749
0.000120066,0.002149791
0.000120086,-0.009044019
0.000120106,0.005881061
0.000120126,0.002149791
0.000120146,-0.005312749
0.000120166,0.002149791
0.000120186,-0.001581479
0.000120206,-0.001581479
0.000120226,0.002149791
0.000120246,-0.005312749
0.000120266,-0.001581479
0.000120286,0.002149791
0.000120306,-0.001581479
0.000120326,0.002149791
0.000120346,-0.001581479
0.000120366,-0.012775289
0.000120386,-0.005312749
0.000120406,0.002149791
0.000120426,-0.001581479
